MTM311 Test Data File
Profile description:	New 3/4" ball on disc profile
Lubricant name:	
Comments:

Number of steps in profile:	1
Number of steps completed:	1
Test started at 19/08/2016 09:39:32

Step 1 started at 19/08/2016 09:48:51
Step type	BOD_TIMED	Step description	New ball on disc timed step	Step duration	02:46:40
Zero traction force (N)	0.1467	(measured at the start of this step)
Disc track radius used for this step (mm)	21.232
Step Time (s)	Traction Coeff (-)							Step Time (s)	Pot RTD Temp (degC)	Lube RTD Temp (degC)	Ball Load (N)	Pin Load (N)	Wear (um)	ECR (%)		Ball Speed 1	Ball Speed 2	Ball Speed 3	Ball Speed 4	Disc Speed 1	Disc Speed 2	Disc Speed 3	Disc Speed 4	Disc Frequency (Hz)	Rolling Speed (mm/s)	Sliding Speed (mm/s)	SRR (%)		TF1 (N)	TF2 (N)	TF3 (N)	TF4 (N)	Traction Force (N)	Traction Coeff (-)	Rolling Force (N)	Rolling Coeff (-)	Traction Trace (-)
10	0.0955							10	94.4	98.5	19.994		-75	0		49.91				150.11					100.01	100.20	100.196						1.9093	0.0955			
20	0.0881							20	94.2	98.3	19.983		-81	0		50.03				150.07					100.05	100.04	99.993						1.7614	0.0881			
30	0.0871							30	94.1	98.1	19.971		-68	0		50.07				149.61					99.84	99.54	99.696						1.7387	0.0871			
40	0.0848							40	94.1	97.9	19.929		-59	0		49.99				149.75					99.87	99.76	99.888						1.6906	0.0848			
50	0.0864							50	94.1	97.8	19.994		-82	0		49.74				150.59					100.16	100.84	100.677						1.7283	0.0864			
60	0.0828							60	94.1	97.7	19.940		-64	0		50.17				150.51					100.34	100.34	100.003						1.6511	0.0828			
70	0.0812							70	94.3	97.7	19.982		-71	0		50.54				150.77					100.65	100.23	99.579						1.6217	0.0812			
80	0.0824							80	94.4	97.8	20.032		-85	0		50.43				148.75					99.59	98.32	98.718						1.6511	0.0824			
90	0.0812							90	94.6	97.9	19.958		-67	0		49.93				150.93					100.43	101.00	100.567						1.6209	0.0812			
100	0.0887							100	94.9	98.1	19.959		-73	1		50.61				149.39					100.00	98.78	98.785						1.7700	0.0887			
110	0.0809							110	95.2	98.4	19.953		-65	0		49.78				149.58					99.68	99.80	100.122						1.6136	0.0809			
120	0.0831							120	95.5	98.7	20.014		-84	0		50.13				150.63					100.38	100.50	100.116						1.6629	0.0831			
130	0.0848							130	95.8	99.0	19.977		-70	0		49.41				148.87					99.14	99.46	100.328						1.6946	0.0848			
140	0.0828							140	96.1	99.4	19.988		-76	0		50.59				150.34					100.47	99.75	99.284						1.6546	0.0828			
150	0.0838							150	96.4	99.8	19.990		-74	0		49.42				148.58					99.00	99.17	100.167						1.6759	0.0838			
160	0.0939							160	96.7	100.1	19.986		-78	4		50.73				149.70					100.21	98.97	98.758						1.8768	0.0939			
170	0.0996							170	96.9	100.5	20.000		-81	1		49.81				148.84					99.33	99.03	99.704						1.9930	0.0996			
180	0.0802							180	97.1	100.8	19.977		-79	0		50.58				150.23					100.40	99.65	99.253						1.6019	0.0802			
190	0.0840							190	97.3	101.1	19.962		-70	0		50.39				151.41					100.90	101.02	100.123						1.6764	0.0840			
200	0.1005							200	97.5	101.4	20.040		-88	2		50.36				148.83					99.60	98.47	98.870						2.0135	0.1005			
210	0.0817							210	97.6	101.6	19.890		-60	0		49.82				150.89					100.35	101.07	100.714						1.6248	0.0817			
220	0.0964							220	97.7	101.8	19.983		-78	12		50.92				148.31					99.62	97.39	97.764						1.9260	0.0964			
230	0.0814							230	97.7	101.9	19.929		-70	0		49.69				152.36					101.03	102.67	101.625						1.6229	0.0814			
240	0.1020							240	97.6	102.0	19.988		-84	0		49.55				150.85					100.20	101.30	101.093						2.0380	0.1020			
250	0.0788							250	97.6	102.0	19.923		-73	0		49.80				150.94					100.37	101.14	100.765						1.5706	0.0788			
260	0.1013							260	97.4	102.0	19.926		-67	10		48.97				149.48					99.23	100.51	101.291						2.0184	0.1013			
270	0.0758							270	97.3	101.9	19.966		-83	0		50.79				151.93					101.36	101.14	99.780						1.5142	0.0758			
280	0.0954							280	97.1	101.7	19.937		-73	0		50.06				149.17					99.61	99.11	99.494						1.9019	0.0954			
290	0.0994							290	96.9	101.5	19.908		-76	6		50.33				149.79					100.06	99.46	99.404						1.9783	0.0994			
300	0.0819							300	96.7	101.3	19.939		-74	0		51.22				150.57					100.90	99.35	98.467						1.6330	0.0819			
310	0.0761							310	96.4	101.1	19.903		-73	0		50.26				151.28					100.77	101.01	100.243						1.5148	0.0761			
320	0.1092							320	96.2	100.9	19.990		-80	8		49.35				149.17					99.26	99.82	100.560						2.1828	0.1092			
330	0.0962							330	95.9	100.6	19.914		-68	0		49.19				150.21					99.70	101.02	101.326						1.9165	0.0962			
340	0.1087							340	95.7	100.3	19.965		-78	0		49.76				148.56					99.16	98.80	99.641						2.1701	0.1087			
350	0.0877							350	95.5	100.1	19.965		-84	0		50.10				150.02					100.06	99.92	99.865						1.7518	0.0877			
360	0.0871							360	95.3	99.8	19.871		-57	0		49.16				150.68					99.92	101.52	101.601						1.7299	0.0871			
370	0.1062							370	95.1	99.5	19.894		-85	10		49.19				152.55					100.87	103.36	102.473						2.1118	0.1062			
380	0.0811							380	95.0	99.3	19.904		-65	0		48.64				150.61					99.62	101.97	102.357						1.6145	0.0811			
390	0.1118							390	94.8	99.1	20.005		-78	14		50.62				150.86					100.74	100.24	99.499						2.2365	0.1118			
400	0.0940							400	94.7	98.9	19.879		-62	0		50.39				149.17					99.78	98.78	99.000						1.8693	0.0940			
410	0.1186							410	94.7	98.8	19.932		-70	9		50.32				149.20					99.76	98.88	99.119						2.3630	0.1186			
420	0.0922							420	94.7	98.7	19.947		-79	0		48.61				150.58					99.60	101.97	102.379						1.8387	0.0922			
430	0.0991							430	94.7	98.6	19.905		-61	0		50.95				147.93					99.44	96.97	97.517						1.9734	0.0991			
440	0.1149							440	94.7	98.6	19.899		-72	0		49.84				151.63					100.73	101.79	101.052						2.2864	0.1149			
450	0.0936							450	94.8	98.6	19.956		-75	0		50.44				151.30					100.87	100.86	99.991						1.8682	0.0936			
460	0.1182							460	94.9	98.6	19.952		-73	9		49.28				150.52					99.90	101.25	101.345						2.3573	0.1182			
470	0.0945							470	95.0	98.7	19.939		-73	0		50.62				148.33					99.47	97.71	98.228						1.8852	0.0945			
480	0.1109							480	95.2	98.9	19.946		-77	1		49.84				150.06					99.95	100.22	100.272						2.2117	0.1109			
490	0.0917							490	95.3	99.0	19.932		-70	1		49.62				149.01					99.32	99.39	100.077						1.8279	0.0917			
500	0.1077							500	95.5	99.2	19.906		-70	2		49.66				151.13					100.39	101.48	101.077						2.1430	0.1077			
510	0.1193							510	95.7	99.4	20.014		-86	9		50.81				148.35					99.58	97.54	97.958						2.3877	0.1193			
520	0.0993							520	95.9	99.6	19.934		-74	0		50.92				150.61					100.77	99.69	98.929						1.9802	0.0993			
530	0.0911							530	96.1	99.8	19.977		-84	0		49.33				149.12					99.22	99.79	100.573						1.8198	0.0911			
540	0.0966							540	96.3	100.0	19.857		-54	0		48.95				149.17					99.06	100.22	101.170						1.9183	0.0966			
550	0.1065							550	96.4	100.3	19.974		-84	0		50.76				148.30					99.53	97.54	98.005						2.1269	0.1065			
560	0.1190							560	96.6	100.5	19.999		-82	0		49.70				148.32					99.01	98.62	99.604						2.3805	0.1190			
570	0.0985							570	96.7	100.6	19.912		-68	0		50.28				151.38					100.83	101.09	100.260						1.9615	0.0985			
580	0.1236							580	96.8	100.8	19.963		-77	2		49.45				148.80					99.12	99.35	100.224						2.4672	0.1236			
590	0.0962							590	96.8	100.9	19.935		-75	0		50.65				150.54					100.60	99.89	99.295						1.9177	0.0962			
600	0.0978							600	96.9	101.0	19.916		-76	0		50.09				151.08					100.59	100.99	100.398						1.9477	0.0978			
610	0.1020							610	96.9	101.1	19.928		-73	0		50.17				150.69					100.43	100.52	100.091						2.0323	0.1020			
620	0.1166							620	96.9	101.2	19.917		-74	0		50.26				149.78					100.02	99.52	99.500						2.3216	0.1166			
630	0.1245							630	96.8	101.2	19.968		-79	0		49.63				150.11					99.87	100.48	100.611						2.4852	0.1245			
640	0.0957							640	96.7	101.1	19.942		-70	0		50.85				150.39					100.62	99.54	98.931						1.9083	0.0957			
650	0.1054							650	96.6	101.1	19.965		-83	0		49.96				149.35					99.65	99.38	99.731						2.1042	0.1054			
660	0.0951							660	96.5	101.0	19.944		-67	0		49.78				150.72					100.25	100.93	100.683						1.8972	0.0951			
670	0.1129							670	96.4	100.9	19.902		-63	0		49.72				149.68					99.70	99.97	100.267						2.2468	0.1129			
680	0.1171							680	96.3	100.8	19.980		-88	4		49.81				149.72					99.76	99.92	100.155						2.3396	0.1171			
690	0.0994							690	96.1	100.6	19.924		-70	0		51.11				149.83					100.47	98.72	98.252						1.9803	0.0994			
700	0.1202							700	96.0	100.5	20.029		-91	5		49.99				150.52					100.25	100.53	100.277						2.4081	0.1202			
710	0.1073							710	95.8	100.3	19.986		-77	0		49.89				150.05					99.97	100.16	100.188						2.1439	0.1073			
720	0.1173							720	95.7	100.1	19.908		-59	0		49.24				148.54					98.89	99.30	100.419						2.3355	0.1173			
730	0.0990							730	95.5	100.0	19.980		-83	0		49.67				150.28					99.98	100.61	100.628						1.9776	0.0990			
740	0.1053							740	95.4	99.8	19.917		-68	3		50.44				150.13					100.29	99.69	99.409						2.0977	0.1053			
750	0.1199							750	95.3	99.6	19.955		-71	4		50.00				150.45					100.23	100.46	100.233						2.3924	0.1199			
760	0.1187							760	95.2	99.5	19.956		-73	3		50.41				149.67					100.04	99.26	99.224						2.3687	0.1187			
770	0.1242							770	95.1	99.4	19.959		-72	5		50.86				149.37					100.12	98.51	98.396						2.4798	0.1242			
780	0.1189							780	95.1	99.2	19.941		-69	0		49.52				149.28					99.40	99.76	100.365						2.3715	0.1189			
790	0.1063							790	95.0	99.2	19.925		-71	0		49.51				149.19					99.35	99.68	100.334						2.1175	0.1063			
800	0.1251							800	95.0	99.1	19.983		-84	8		49.42				151.08					100.25	101.66	101.410						2.5004	0.1251			
810	0.1001							810	95.0	99.0	19.920		-64	0		50.51				148.66					99.59	98.14	98.553						1.9947	0.1001			
820	0.1153							820	95.1	99.0	19.993		-82	1		50.11				149.69					99.90	99.58	99.674						2.3050	0.1153			
830	0.1185							830	95.1	99.1	19.974		-79	0		50.20				150.02					100.11	99.83	99.713						2.3673	0.1185			
840	0.1041							840	95.2	99.1	19.875		-52	3		49.38				150.28					99.83	100.90	101.078						2.0685	0.1041			
850	0.1191							850	95.3	99.2	19.983		-78	13		51.20				149.85					100.52	98.65	98.139						2.3798	0.1191			
860	0.1059							860	95.4	99.2	19.959		-89	0		49.52				150.43					99.97	100.91	100.940						2.1142	0.1059			
870	0.1013							870	95.5	99.4	19.902		-76	3		50.28				149.05					99.66	98.78	99.108						2.0153	0.1013			
880	0.1218							880	95.7	99.5	19.905		-81	6		49.44				149.09					99.27	99.65	100.385						2.4239	0.1218			
890	0.0981							890	95.8	99.6	19.921		-77	0		51.00				149.45					100.22	98.45	98.236						1.9537	0.0981			
900	0.1121							900	95.9	99.8	19.911		-67	0		50.05				150.16					100.10	100.11	100.008						2.2324	0.1121			
910	0.0983							910	96.0	99.9	19.947		-78	0		49.96				149.29					99.62	99.33	99.708						1.9608	0.0983			
920	0.1024							920	96.1	100.1	19.938		-76	0		49.55				150.84					100.20	101.28	101.085						2.0412	0.1024			
930	0.1249							930	96.2	100.2	19.956		-81	0		50.25				148.83					99.54	98.58	99.034						2.4935	0.1249			
940	0.0996							940	96.3	100.3	19.902		-71	3		49.79				148.98					99.39	99.19	99.799						1.9827	0.0996			
950	0.1040							950	96.4	100.4	19.922		-69	0		49.66				150.62					100.14	100.96	100.824						2.0716	0.1040			
960	0.1219							960	96.5	100.6	19.962		-82	0		49.94				150.10					100.02	100.15	100.133						2.4332	0.1219			
970	0.0987							970	96.5	100.6	19.914		-64	0		49.62				149.35					99.48	99.73	100.249						1.9659	0.0987			
980	0.1081							980	96.6	100.7	19.968		-78	0		49.89				149.08					99.49	99.19	99.705						2.1577	0.1081			
990	0.1018							990	96.6	100.8	19.986		-91	1		49.88				149.10					99.49	99.22	99.732						2.0347	0.1018			
1000	0.1010							1000	96.5	100.8	19.863		-60	0		49.12				151.29					100.20	102.17	101.960						2.0053	0.1010			
1010	0.1211							1010	96.5	100.8	19.929		-82	10		49.10				150.98					100.04	101.88	101.836						2.4129	0.1211			
1020	0.1004							1020	96.5	100.8	19.881		-64	1		50.61				148.60					99.61	97.99	98.376						1.9970	0.1004			
1030	0.1173							1030	96.4	100.7	19.962		-73	15		49.82				150.44					100.13	100.62	100.485						2.3418	0.1173			
1040	0.1067							1040	96.3	100.7	19.947		-86	0		49.74				150.69					100.21	100.95	100.739						2.1276	0.1067			
1050	0.1119							1050	96.2	100.6	19.923		-68	0		48.98				150.78					99.88	101.79	101.917						2.2301	0.1119			
1060	0.1026							1060	96.1	100.5	19.959		-76	0		50.64				149.43					100.03	98.80	98.763						2.0473	0.1026			
1070	0.1008							1070	96.0	100.4	19.946		-72	0		50.69				150.47					100.58	99.78	99.198						2.0112	0.1008			
1080	0.1210							1080	95.9	100.3	19.941		-69	0		50.67				149.75					100.21	99.08	98.872						2.4132	0.1210			
1090	0.1120							1090	95.8	100.2	19.926		-75	0		49.80				150.17					99.99	100.37	100.379						2.2310	0.1120			
1100	0.1010							1100	95.7	100.1	19.861		-69	4		50.58				148.52					99.55	97.94	98.382						2.0057	0.1010			
1110	0.1124							1110	95.6	99.9	19.972		-82	0		49.92				150.73					100.32	100.80	100.479						2.2444	0.1124			
1120	0.1031							1120	95.5	99.8	19.924		-60	0		49.95				149.47					99.71	99.52	99.813						2.0539	0.1031			
1130	0.1241							1130	95.4	99.7	19.955		-79	0		50.40				149.99					100.19	99.59	99.401						2.4766	0.1241			
1140	0.1013							1140	95.4	99.6	19.905		-60	0		49.76				152.04					100.90	102.28	101.362						2.0161	0.1013			
1150	0.1109							1150	95.3	99.5	19.977		-75	0		50.95				147.55					99.25	96.60	97.335						2.2164	0.1109			
1160	0.0983							1160	95.3	99.4	19.947		-81	0		50.23				149.78					100.00	99.55	99.542						1.9611	0.0983			
1170	0.1093							1170	95.2	99.4	19.914		-61	0		50.34				151.23					100.78	100.88	100.098						2.1762	0.1093			
1180	0.1210							1180	95.2	99.3	19.926		-70	6		50.12				148.69					99.41	98.57	99.161						2.4112	0.1210			
1190	0.1263							1190	95.2	99.3	19.926		-66	9		50.65				148.48					99.56	97.83	98.259						2.5176	0.1263			
1200	0.1230							1200	95.3	99.3	19.953		-77	0		49.70				149.63					99.67	99.94	100.270						2.4552	0.1230			
1210	0.1264							1210	95.3	99.3	19.922		-72	0		48.66				149.89					99.27	101.23	101.967						2.5191	0.1264			
1220	0.1213							1220	95.4	99.3	19.930		-73	0		48.54				152.16					100.35	103.62	103.260						2.4172	0.1213			
1230	0.1060							1230	95.5	99.4	19.935		-74	0		50.93				147.77					99.35	96.83	97.466						2.1133	0.1060			
1240	0.1287							1240	95.6	99.4	19.965		-69	0		50.60				149.71					100.16	99.11	98.961						2.5696	0.1287			
1250	0.1116							1250	95.6	99.5	19.902		-65	0		50.01				151.34					100.68	101.33	100.647						2.2207	0.1116			
1260	0.1283							1260	95.7	99.6	19.968		-80	0		50.40				149.18					99.79	98.78	98.989						2.5610	0.1283			
1270	0.1033							1270	95.8	99.7	19.918		-66	0		50.33				149.73					100.03	99.40	99.369						2.0567	0.1033			
1280	0.1275							1280	95.9	99.9	20.011		-86	0		50.16				149.72					99.94	99.56	99.617						2.5523	0.1275			
1290	0.1035							1290	96.0	100.0	19.926		-67	0		50.14				151.11					100.62	100.97	100.339						2.0621	0.1035			
1300	0.1013							1300	96.1	100.1	19.893		-57	0		48.85				151.22					100.03	102.37	102.337						2.0155	0.1013			
1310	0.1058							1310	96.2	100.2	19.914		-62	0		50.03				149.31					99.67	99.28	99.606						2.1067	0.1058			
1320	0.1042							1320	96.3	100.3	19.876		-67	6		50.58				148.93					99.75	98.35	98.591						2.0711	0.1042			
1330	0.1123							1330	96.3	100.4	19.932		-69	0		49.83				150.72					100.28	100.88	100.606						2.2392	0.1123			
1340	0.1070							1340	96.4	100.5	19.893		-67	0		49.80				149.92					99.86	100.12	100.255						2.1281	0.1070			
1350	0.1231							1350	96.4	100.5	19.926		-67	3		50.23				148.44					99.34	98.20	98.860						2.4532	0.1231			
1360	0.1144							1360	96.4	100.6	19.886		-76	3		49.53				147.85					98.69	98.31	99.618						2.2755	0.1144			
1370	0.1041							1370	96.4	100.6	19.920		-76	0		50.61				149.85					100.23	99.25	99.019						2.0743	0.1041			
1380	0.1180							1380	96.4	100.6	19.957		-73	0		49.65				150.40					100.03	100.75	100.723						2.3550	0.1180			
1390	0.1211							1390	96.4	100.6	19.955		-74	8		50.13				149.64					99.88	99.51	99.630						2.4161	0.1211			
1400	0.1013							1400	96.3	100.6	19.944		-70	0		50.65				148.81					99.73	98.16	98.428						2.0205	0.1013			
1410	0.1301							1410	96.3	100.6	19.917		-73	0		49.73				150.09					99.91	100.36	100.455						2.5912	0.1301			
1420	0.1010							1420	96.2	100.5	19.902		-59	0		50.00				151.05					100.52	101.05	100.521						2.0098	0.1010			
1430	0.1166							1430	96.1	100.5	19.993		-82	0		49.02				149.32					99.17	100.30	101.144						2.3319	0.1166			
1440	0.1218							1440	96.1	100.4	19.996		-88	5		50.56				150.30					100.43	99.73	99.305						2.4347	0.1218			
1450	0.1005							1450	96.0	100.3	19.983		-74	0		49.55				149.90					99.72	100.35	100.626						2.0083	0.1005			
1460	0.1082							1460	95.9	100.2	19.878		-56	0		50.61				150.59					100.60	99.97	99.380						2.1513	0.1082			
1470	0.1204							1470	95.8	100.1	19.960		-83	10		49.42				149.58					99.50	100.16	100.664						2.4041	0.1204			
1480	0.1069							1480	95.7	100.0	19.865		-59	0		50.88				149.70					100.29	98.82	98.535						2.1239	0.1069			
1490	0.1164							1490	95.7	99.9	19.986		-80	0		49.48				151.16					100.32	101.68	101.356						2.3270	0.1164			
1500	0.1066							1500	95.6	99.8	19.900		-67	9		50.19				150.81					100.50	100.63	100.127						2.1222	0.1066			
1510	0.1236							1510	95.5	99.8	19.920		-67	0		49.72				150.06					99.89	100.34	100.450						2.4612	0.1236			
1520	0.1093							1520	95.5	99.7	19.964		-78	0		50.24				149.90					100.07	99.66	99.589						2.1818	0.1093			
1530	0.1103							1530	95.4	99.6	19.938		-70	0		49.81				149.53					99.67	99.72	100.047						2.1986	0.1103			
1540	0.1236							1540	95.4	99.6	19.954		-73	6		49.93				149.93					99.93	100.00	100.070						2.4654	0.1236			
1550	0.1269							1550	95.4	99.5	19.929		-73	11		49.61				151.31					100.46	101.70	101.240						2.5288	0.1269			
1560	0.1057							1560	95.4	99.5	19.941		-68	0		48.91				151.47					100.19	102.56	102.363						2.1069	0.1057			
1570	0.1210							1570	95.4	99.5	19.959		-84	0		50.47				148.81					99.64	98.34	98.698						2.4150	0.1210			
1580	0.1250							1580	95.5	99.5	19.929		-68	0		50.00				149.18					99.59	99.17	99.580						2.4914	0.1250			
1590	0.1077							1590	95.5	99.5	19.899		-56	0		50.13				149.91					100.02	99.78	99.756						2.1434	0.1077			
1600	0.1245							1600	95.5	99.5	20.001		-85	0		50.20				151.54					100.87	101.35	100.474						2.4900	0.1245			
1610	0.1092							1610	95.6	99.6	19.895		-74	7		51.14				148.87					100.00	97.73	97.725						2.1724	0.1092			
1620	0.1104							1620	95.7	99.6	19.908		-61	0		49.54				149.88					99.71	100.34	100.635						2.1974	0.1104			
1630	0.1276							1630	95.7	99.7	19.959		-81	0		49.87				149.14					99.51	99.26	99.758						2.5468	0.1276			
1640	0.1079							1640	95.8	99.7	19.949		-80	4		50.33				151.19					100.76	100.86	100.096						2.1527	0.1079			
1650	0.1049							1650	95.9	99.8	19.929		-68	0		50.24				150.14					100.19	99.90	99.713						2.0903	0.1049			
1660	0.1319							1660	95.9	99.9	19.944		-73	0		49.93				149.76					99.85	99.83	99.981						2.6314	0.1319			
1670	0.1093							1670	96.0	100.0	19.923		-74	0		49.65				150.89					100.27	101.23	100.963						2.1780	0.1093			
1680	0.1314							1680	96.1	100.1	19.949		-72	12		50.30				150.38					100.34	100.08	99.746						2.6203	0.1314			
1690	0.1060							1690	96.1	100.1	19.949		-71	0		49.93				149.27					99.60	99.35	99.746						2.1154	0.1060			
1700	0.1113							1700	96.2	100.2	19.966		-78	0		49.85				148.91					99.38	99.06	99.674						2.2214	0.1113			
1710	0.1259							1710	96.2	100.3	19.875		-68	0		49.29				150.16					99.72	100.87	101.152						2.5025	0.1259			
1720	0.1162							1720	96.2	100.3	19.959		-75	0		49.95				150.48					100.22	100.53	100.317						2.3183	0.1162			
1730	0.1225							1730	96.3	100.4	19.970		-82	0		50.49				149.94					100.22	99.45	99.232						2.4457	0.1225			
1740	0.1074							1740	96.3	100.4	19.883		-63	0		50.56				150.96					100.76	100.40	99.650						2.1356	0.1074			
1750	0.1280							1750	96.3	100.4	19.944		-86	5		50.17				148.84					99.51	98.67	99.156						2.5529	0.1280			
1760	0.1087							1760	96.2	100.4	19.908		-64	1		49.82				151.29					100.55	101.47	100.913						2.1631	0.1087			
1770	0.1283							1770	96.2	100.4	19.933		-77	0		50.26				149.09					99.68	98.83	99.153						2.5581	0.1283			
1780	0.1081							1780	96.2	100.4	19.977		-88	0		49.53				150.68					100.10	101.16	101.053						2.1591	0.1081			
1790	0.1141							1790	96.2	100.4	19.924		-66	0		50.00				150.38					100.19	100.38	100.188						2.2725	0.1141			
1800	0.1271							1800	96.1	100.4	19.929		-77	5		49.06				150.00					99.53	100.95	101.425						2.5332	0.1271			
1810	0.1078							1810	96.1	100.3	19.887		-70	0		50.33				150.83					100.58	100.51	99.928						2.1444	0.1078			
1820	0.1206							1820	96.0	100.3	19.938		-67	0		50.35				150.09					100.22	99.75	99.525						2.4045	0.1206			
1830	0.1078							1830	96.0	100.2	19.909		-72	0		50.21				149.78					99.99	99.57	99.579						2.1471	0.1078			
1840	0.1279							1840	95.9	100.1	19.959		-75	0		49.99				151.06					100.52	101.06	100.537						2.5529	0.1279			
1850	0.1181							1850	95.8	100.1	19.940		-71	0		50.16				149.21					99.68	99.05	99.370						2.3544	0.1181			
1860	0.1133							1860	95.8	100.0	19.962		-78	0		49.74				149.98					99.86	100.23	100.377						2.2617	0.1133			
1870	0.1117							1870	95.7	99.9	19.875		-73	12		50.08				149.95					100.01	99.87	99.859						2.2202	0.1117			
1880	0.1093							1880	95.7	99.9	19.902		-59	3		49.74				150.51					100.13	100.77	100.642						2.1756	0.1093			
1890	0.1277							1890	95.7	99.8	19.972		-81	0		49.74				150.65					100.20	100.91	100.710						2.5497	0.1277			
1900	0.1084							1900	95.6	99.8	19.917		-69	0		49.93				148.45					99.19	98.52	99.331						2.1584	0.1084			
1910	0.1217							1910	95.6	99.7	19.999		-86	0		49.81				149.84					99.83	100.02	100.199						2.4335	0.1217			
1920	0.1238							1920	95.6	99.7	19.956		-84	0		49.26				150.75					100.01	101.49	101.487						2.4707	0.1238			
1930	0.1154							1930	95.6	99.7	19.902		-55	0		49.90				149.78					99.84	99.89	100.047						2.2963	0.1154			
1940	0.1150							1940	95.6	99.6	19.887		-62	0		50.40				148.52					99.46	98.13	98.658						2.2869	0.1150			
1950	0.1124							1950	95.6	99.6	19.986		-80	1		50.28				148.93					99.61	98.66	99.047						2.2472	0.1124			
1960	0.1103							1960	95.6	99.6	19.885		-71	2		49.69				150.90					100.30	101.21	100.909						2.1928	0.1103			
1970	0.1252							1970	95.6	99.6	19.958		-72	6		49.66				152.82					101.24	103.16	101.899						2.4987	0.1252			
1980	0.1072							1980	95.7	99.7	19.926		-73	0		50.55				149.70					100.12	99.14	99.023						2.1358	0.1072			
1990	0.1247							1990	95.7	99.7	19.917		-68	1		49.93				150.80					100.37	100.87	100.501						2.4837	0.1247			
2000	0.1077							2000	95.7	99.7	19.924		-69	0		49.85				150.83					100.34	100.98	100.641						2.1451	0.1077			
2010	0.1246							2010	95.8	99.8	19.970		-78	8		49.67				150.28					99.97	100.61	100.639						2.4881	0.1246			
2020	0.1104							2020	95.8	99.8	19.926		-68	0		49.73				149.71					99.72	99.98	100.264						2.2004	0.1104			
2030	0.1212							2030	95.9	99.9	19.939		-74	0		50.15				149.45					99.80	99.29	99.494						2.4169	0.1212			
2040	0.1117							2040	95.9	99.9	19.943		-69	0		50.21				148.98					99.60	98.76	99.164						2.2286	0.1117			
2050	0.1132							2050	96.0	100.0	19.905		-58	0		50.09				148.77					99.43	98.68	99.250						2.2538	0.1132			
2060	0.1115							2060	96.0	100.1	19.923		-65	0		50.25				149.64					99.95	99.39	99.446						2.2209	0.1115			
2070	0.1271							2070	96.1	100.1	20.005		-86	14		50.44				148.65					99.55	98.21	98.660						2.5424	0.1271			
2080	0.1127							2080	96.1	100.2	19.905		-68	0		49.50				150.21					99.85	100.70	100.850						2.2427	0.1127			
2090	0.1245							2090	96.1	100.2	20.035		-90	0		49.57				151.69					100.63	102.12	101.479						2.4952	0.1245			
2100	0.1102							2100	96.2	100.3	19.863		-54	0		49.85				151.06					100.46	101.20	100.744						2.1896	0.1102			
2110	0.1226							2110	96.2	100.3	19.977		-75	22		50.54				149.58					100.06	99.04	98.985						2.4494	0.1226			
2120	0.1068							2120	96.2	100.3	19.897		-62	2		50.32				148.29					99.31	97.98	98.660						2.1243	0.1068			
2130	0.1244							2130	96.2	100.3	19.953		-71	11		50.09				150.62					100.36	100.53	100.169						2.4829	0.1244			
2140	0.1147							2140	96.2	100.3	19.993		-82	0		49.62				150.92					100.27	101.30	101.025						2.2941	0.1147			
2150	0.1268							2150	96.1	100.3	19.932		-70	0		50.89				148.75					99.82	97.86	98.035						2.5268	0.1268			
2160	0.1047							2160	96.1	100.3	19.896		-71	3		49.96				148.92					99.44	98.96	99.515						2.0840	0.1047			
2170	0.1125							2170	96.1	100.3	19.959		-77	0		50.28				149.67					99.98	99.40	99.421						2.2446	0.1125			
2180	0.1221							2180	96.1	100.3	19.945		-69	0		49.76				150.19					99.98	100.43	100.451						2.4355	0.1221			
2190	0.1068							2190	96.0	100.2	19.962		-76	0		49.67				150.23					99.95	100.56	100.608						2.1314	0.1068			
2200	0.1132							2200	96.0	100.2	19.987		-82	0		49.83				149.36					99.59	99.52	99.930						2.2622	0.1132			
2210	0.1084							2210	95.9	100.1	19.895		-63	0		50.01				150.02					100.02	100.01	99.995						2.1563	0.1084			
2220	0.1243							2220	95.9	100.1	19.987		-80	0		49.90				149.93					99.91	100.02	100.110						2.4853	0.1243			
2230	0.1075							2230	95.9	100.0	19.923		-63	0		50.03				152.09					101.06	102.06	100.994						2.1414	0.1075			
2240	0.1128							2240	95.8	100.0	19.938		-81	6		49.61				149.48					99.54	99.87	100.327						2.2492	0.1128			
2250	0.1082							2250	95.8	99.9	19.908		-63	0		49.80				150.49					100.15	100.69	100.542						2.1545	0.1082			
2260	0.1247							2260	95.7	99.9	19.991		-85	0		49.90				150.48					100.19	100.57	100.381						2.4938	0.1247			
2270	0.1059							2270	95.7	99.9	19.955		-70	0		49.77				149.94					99.86	100.16	100.308						2.1134	0.1059			
2280	0.1124							2280	95.7	99.8	19.896		-62	0		50.13				150.03					100.08	99.90	99.819						2.2360	0.1124			
2290	0.1059							2290	95.7	99.8	19.977		-81	0		49.79				150.35					100.07	100.57	100.494						2.1155	0.1059			
2300	0.1220							2300	95.7	99.8	19.920		-81	1		49.68				149.34					99.51	99.66	100.147						2.4300	0.1220			
2310	0.1078							2310	95.7	99.7	19.923		-73	0		49.70				150.74					100.22	101.05	100.825						2.1472	0.1078			
2320	0.1208							2320	95.7	99.7	19.935		-75	0		50.79				151.36					101.08	100.57	99.496						2.4080	0.1208			
2330	0.1192							2330	95.7	99.7	19.935		-67	0		49.94				150.51					100.23	100.57	100.345						2.3760	0.1192			
2340	0.1119							2340	95.7	99.7	19.968		-81	0		50.12				150.67					100.40	100.55	100.153						2.2338	0.1119			
2350	0.1068							2350	95.7	99.7	19.929		-66	0		50.11				149.90					100.00	99.79	99.790						2.1292	0.1068			
2360	0.1238							2360	95.8	99.8	20.017		-86	0		50.36				149.33					99.84	98.97	99.121						2.4789	0.1238			
2370	0.1066							2370	95.8	99.8	19.899		-60	0		49.99				150.48					100.24	100.49	100.252						2.1218	0.1066			
2380	0.1218							2380	95.8	99.8	19.950		-81	3		50.26				149.20					99.73	98.94	99.203						2.4295	0.1218			
2390	0.1102							2390	95.9	99.9	19.922		-59	0		49.94				151.12					100.53	101.18	100.640						2.1957	0.1102			
2400	0.1042							2400	95.9	99.9	19.932		-71	0		48.85				151.45					100.15	102.60	102.445						2.0764	0.1042			
2410	0.1060							2410	95.9	99.9	19.903		-60	0		50.42				148.83					99.63	98.41	98.783						2.1106	0.1060			
2420	0.1174							2420	96.0	100.0	19.935		-68	0		49.92				150.12					100.02	100.21	100.187						2.3403	0.1174			
2430	0.1148							2430	96.0	100.0	19.953		-80	5		50.02				150.06					100.04	100.04	99.997						2.2907	0.1148			
2440	0.1166							2440	96.0	100.1	19.923		-62	0		50.65				152.29					101.47	101.64	100.172						2.3223	0.1166			
2450	0.1196							2450	96.1	100.1	19.977		-70	0		50.34				150.26					100.30	99.92	99.619						2.3886	0.1196			
2460	0.1038							2460	96.1	100.1	19.948		-75	0		49.84				149.99					99.91	100.15	100.233						2.0703	0.1038			
2470	0.1252							2470	96.1	100.2	19.938		-74	6		49.85				150.72					100.28	100.88	100.591						2.4959	0.1252			
2480	0.1215							2480	96.1	100.2	19.941		-73	16		49.98				150.30					100.14	100.32	100.181						2.4227	0.1215			
2490	0.1046							2490	96.1	100.2	19.946		-68	0		50.59				150.92					100.75	100.33	99.579						2.0856	0.1046			
2500	0.1058							2500	96.1	100.2	19.973		-74	0		49.93				150.06					99.99	100.13	100.136						2.1136	0.1058			
2510	0.1141							2510	96.1	100.2	19.997		-79	0		50.13				150.85					100.49	100.72	100.222						2.2813	0.1141			
2520	0.1162							2520	96.1	100.2	19.923		-64	2		50.39				150.96					100.67	100.57	99.896						2.3157	0.1162			
2530	0.1046							2530	96.1	100.2	19.932		-60	0		50.17				148.18					99.17	98.01	98.831						2.0847	0.1046			
2540	0.1215							2540	96.1	100.2	20.008		-86	0		49.48				150.51					99.99	101.04	101.043						2.4308	0.1215			
2550	0.1036							2550	96.0	100.2	19.938		-65	0		49.89				149.83					99.86	99.94	100.082						2.0663	0.1036			
2560	0.1215							2560	96.0	100.2	19.953		-83	6		49.71				152.14					100.92	102.42	101.484						2.4235	0.1215			
2570	0.1150							2570	96.0	100.2	19.923		-60	0		50.83				149.33					100.08	98.50	98.423						2.2910	0.1150			
2580	0.1045							2580	96.0	100.1	19.924		-63	0		50.64				150.16					100.40	99.51	99.116						2.0825	0.1045			
2590	0.1196							2590	95.9	100.1	19.954		-72	11		50.16				150.47					100.31	100.31	99.993						2.3863	0.1196			
2600	0.1096							2600	95.9	100.0	19.967		-80	0		50.37				149.83					100.10	99.47	99.370						2.1881	0.1096			
2610	0.1186							2610	95.9	100.0	19.941		-67	0		50.58				150.62					100.60	100.04	99.441						2.3653	0.1186			
2620	0.1216							2620	95.8	100.0	19.959		-64	0		50.76				149.01					99.88	98.25	98.366						2.4280	0.1216			
2630	0.1045							2630	95.8	99.9	19.964		-71	0		50.05				150.26					100.15	100.21	100.054						2.0862	0.1045			
2640	0.1052							2640	95.8	99.9	19.931		-72	0		48.84				150.70					99.77	101.87	102.102						2.0958	0.1052			
2650	0.1098							2650	95.8	99.9	19.938		-69	0		49.54				149.97					99.76	100.43	100.675						2.1885	0.1098			
2660	0.1046							2660	95.8	99.9	19.993		-81	0		50.34				149.20					99.77	98.86	99.087						2.0917	0.1046			
2670	0.1210							2670	95.8	99.8	19.950		-75	0		50.26				150.51					100.38	100.25	99.866						2.4136	0.1210			
2680	0.1038							2680	95.8	99.8	19.926		-60	0		49.79				150.26					100.03	100.47	100.448						2.0682	0.1038			
2690	0.1083							2690	95.8	99.8	19.914		-64	0		49.65				151.06					100.35	101.40	101.046						2.1566	0.1083			
2700	0.1062							2700	95.8	99.8	19.936		-76	4		50.72				149.21					99.96	98.50	98.532						2.1166	0.1062			
2710	0.1054							2710	95.8	99.8	19.920		-60	0		49.40				149.79					99.60	100.39	100.800						2.1000	0.1054			
2720	0.1173							2720	95.8	99.8	19.957		-71	2		50.05				150.77					100.41	100.72	100.306						2.3415	0.1173			
2730	0.1217							2730	95.8	99.8	19.986		-82	8		49.87				151.81					100.84	101.94	101.087						2.4323	0.1217			
2740	0.1013							2740	95.8	99.8	19.949		-68	0		49.94				149.57					99.75	99.63	99.878						2.0206	0.1013			
2750	0.1038							2750	95.9	99.9	19.929		-61	0		50.42				148.59					99.50	98.17	98.655						2.0693	0.1038			
2760	0.1210							2760	95.9	99.9	19.960		-70	0		50.33				150.05					100.19	99.72	99.527						2.4155	0.1210			
2770	0.1140							2770	95.9	99.9	19.980		-78	0		49.47				149.86					99.67	100.39	100.729						2.2772	0.1140			
2780	0.1028							2780	95.9	100.0	19.950		-71	0		49.69				150.92					100.31	101.23	100.918						2.0510	0.1028			
2790	0.1172							2790	96.0	100.0	19.938		-68	0		50.50				149.70					100.10	99.19	99.094						2.3358	0.1172			
2800	0.1019							2800	96.0	100.0	19.937		-64	0		49.81				150.11					99.96	100.30	100.338						2.0309	0.1019			
2810	0.1124							2810	96.0	100.0	19.984		-78	3		49.57				150.05					99.81	100.48	100.677						2.2466	0.1124			
2820	0.1182							2820	96.0	100.0	19.943		-68	0		49.73				149.03					99.38	99.30	99.914						2.3573	0.1182			
2830	0.1054							2830	96.0	100.1	19.932		-64	0		50.03				149.36					99.69	99.32	99.628						2.1018	0.1054			
2840	0.1159							2840	96.0	100.1	19.990		-85	0		50.27				150.07					100.17	99.79	99.623						2.3159	0.1159			
2850	0.1082							2850	96.0	100.1	19.920		-62	0		50.03				149.71					99.87	99.68	99.806						2.1550	0.1082			
2860	0.1136							2860	96.0	100.1	19.920		-59	0		49.43				149.88					99.65	100.45	100.798						2.2628	0.1136			
2870	0.1176							2870	96.0	100.1	19.977		-84	0		50.44				149.97					100.21	99.53	99.324						2.3491	0.1176			
2880	0.1033							2880	96.0	100.1	19.937		-62	0		50.41				150.02					100.22	99.61	99.398						2.0598	0.1033			
2890	0.1190							2890	96.0	100.1	20.018		-83	1		49.80				149.54					99.67	99.74	100.067						2.3824	0.1190			
2900	0.1109							2900	96.0	100.1	19.950		-81	0		50.01				149.57					99.79	99.56	99.769						2.2119	0.1109			
2910	0.1016							2910	96.0	100.1	19.935		-62	0		50.38				150.38					100.38	100.00	99.615						2.0257	0.1016			
2920	0.1142							2920	96.0	100.1	19.950		-72	0		49.93				148.92					99.43	98.99	99.565						2.2781	0.1142			
2930	0.1000							2930	96.0	100.1	19.990		-74	0		49.87				150.60					100.23	100.73	100.496						1.9997	0.1000			
2940	0.1171							2940	96.0	100.1	19.994		-74	0		49.42				149.50					99.46	100.07	100.617						2.3419	0.1171			
2950	0.1042							2950	96.0	100.1	19.935		-68	0		50.42				149.47					99.94	99.05	99.102						2.0763	0.1042			
2960	0.1118							2960	95.9	100.1	19.908		-69	0		50.18				149.47					99.83	99.29	99.461						2.2262	0.1118			
2970	0.1005							2970	95.9	100.0	19.908		-57	0		50.14				150.40					100.27	100.26	99.993						2.0003	0.1005			
2980	0.1180							2980	95.9	100.0	19.967		-75	1		49.92				149.23					99.58	99.31	99.737						2.3571	0.1180			
2990	0.1005							2990	95.9	100.0	19.921		-65	2		50.55				149.01					99.78	98.47	98.685						2.0016	0.1005			
3000	0.1025							3000	95.9	100.0	19.993		-76	0		49.94				149.50					99.72	99.56	99.838						2.0502	0.1025			
3010	0.1143							3010	95.9	100.0	19.950		-81	13		50.31				150.47					100.39	100.16	99.765						2.2809	0.1143			
3020	0.1082							3020	95.9	99.9	19.959		-69	0		49.62				150.60					100.11	100.99	100.876						2.1604	0.1082			
3030	0.0979							3030	95.9	99.9	19.887		-52	0		49.63				150.27					99.95	100.64	100.688						1.9461	0.0979			
3040	0.1136							3040	95.8	99.9	19.974		-78	1		50.58				148.69					99.63	98.11	98.474						2.2695	0.1136			
3050	0.1013							3050	95.8	99.9	19.922		-61	0		50.20				150.07					100.13	99.88	99.742						2.0190	0.1013			
3060	0.0979							3060	95.8	99.9	19.944		-77	0		49.68				151.81					100.75	102.13	101.368						1.9522	0.0979			
3070	0.1194							3070	95.8	99.9	19.972		-75	9		48.86				150.69					99.78	101.82	102.052						2.3845	0.1194			
3080	0.1113							3080	95.8	99.9	19.956		-67	0		50.13				150.32					100.22	100.20	99.972						2.2210	0.1113			
3090	0.0993							3090	95.9	99.9	19.965		-69	0		50.80				149.85					100.32	99.05	98.730						1.9816	0.0993			
3100	0.1165							3100	95.9	99.9	19.945		-72	0		49.93				150.12					100.03	100.19	100.159						2.3238	0.1165			
3110	0.1183							3110	95.9	99.9	19.953		-71	0		50.06				149.87					99.97	99.81	99.848						2.3600	0.1183			
3120	0.0982							3120	95.9	99.9	19.955		-65	0		49.49				151.44					100.46	101.95	101.484						1.9593	0.0982			
3130	0.0999							3130	95.9	99.9	20.003		-79	0		50.05				149.92					99.99	99.87	99.885						1.9989	0.0999			
3140	0.1190							3140	95.9	99.9	20.020		-81	0		49.84				150.36					100.10	100.52	100.422						2.3825	0.1190			
3150	0.1086							3150	95.9	100.0	19.890		-56	0		49.51				151.80					100.65	102.29	101.630						2.1592	0.1086			
3160	0.1003							3160	95.9	100.0	19.974		-67	0		49.97				149.03					99.50	99.06	99.559						2.0034	0.1003			
3170	0.1118							3170	95.9	100.0	20.017		-86	0		50.21				149.11					99.66	98.90	99.242						2.2386	0.1118			
3180	0.0970							3180	96.0	100.0	20.008		-86	0		50.14				150.54					100.34	100.40	100.056						1.9406	0.0970			
3190	0.1164							3190	96.0	100.0	19.983		-78	0		49.44				150.83					100.13	101.39	101.256						2.3263	0.1164			
3200	0.1004							3200	96.0	100.0	19.921		-69	0		50.01				150.34					100.18	100.33	100.149						1.9999	0.1004			
3210	0.1016							3210	96.0	100.0	19.944		-63	0		50.34				148.96					99.65	98.61	98.958						2.0272	0.1016			
3220	0.1022							3220	96.0	100.1	19.986		-76	0		49.75				149.73					99.74	99.99	100.249						2.0424	0.1022			
3230	0.1014							3230	96.0	100.1	19.977		-72	0		49.53				151.60					100.56	102.07	101.496						2.0254	0.1014			
3240	0.1178							3240	96.0	100.1	19.975		-75	0		49.97				150.91					100.44	100.94	100.494						2.3522	0.1178			
3250	0.1051							3250	96.0	100.1	19.940		-65	0		50.06				149.61					99.84	99.55	99.712						2.0967	0.1051			
3260	0.1092							3260	96.0	100.1	19.974		-77	0		50.54				149.78					100.16	99.24	99.082						2.1809	0.1092			
3270	0.1155							3270	96.0	100.1	19.957		-68	0		49.77				150.01					99.89	100.24	100.346						2.3041	0.1155			
3280	0.0987							3280	96.0	100.1	19.902		-54	0		49.91				150.63					100.27	100.72	100.452						1.9643	0.0987			
3290	0.1157							3290	96.0	100.1	20.020		-81	0		49.50				150.65					100.08	101.15	101.077						2.3155	0.1157			
3300	0.1058							3300	96.0	100.1	20.023		-84	0		49.71				149.97					99.84	100.25	100.414						2.1178	0.1058			
3310	0.1005							3310	96.0	100.1	19.950		-62	0		50.39				149.62					100.01	99.23	99.222						2.0057	0.1005			
3320	0.1128							3320	96.0	100.1	19.988		-82	0		49.74				150.05					99.89	100.30	100.411						2.2546	0.1128			
3330	0.0985							3330	96.0	100.0	19.927		-59	0		49.70				149.53					99.62	99.83	100.218						1.9633	0.0985			
3340	0.1121							3340	96.0	100.0	20.011		-75	0		50.61				149.37					99.99	98.76	98.769						2.2432	0.1121			
3350	0.0996							3350	95.9	100.0	19.968		-66	0		50.26				149.95					100.11	99.69	99.585						1.9883	0.0996			
3360	0.1146							3360	95.9	100.0	19.990		-75	0		49.74				150.71					100.23	100.97	100.744						2.2916	0.1146			
3370	0.1009							3370	95.9	100.0	19.953		-68	0		49.93				150.17					100.05	100.24	100.185						2.0130	0.1009			
3380	0.1128							3380	95.9	100.0	19.959		-64	9		50.46				150.89					100.67	100.42	99.750						2.2523	0.1128			
3390	0.0998							3390	95.9	100.0	19.959		-68	0		50.33				149.65					99.99	99.32	99.325						1.9924	0.0998			
3400	0.1154							3400	95.9	99.9	19.974		-76	0		49.69				150.48					100.09	100.79	100.703						2.3057	0.1154			
3410	0.1135							3410	95.9	99.9	19.973		-72	0		49.59				149.14					99.37	99.55	100.182						2.2668	0.1135			
3420	0.1001							3420	95.9	99.9	19.953		-72	0		50.13				149.69					99.91	99.56	99.655						1.9976	0.1001			
3430	0.1162							3430	95.9	99.9	19.980		-79	0		50.10				150.84					100.47	100.73	100.261						2.3211	0.1162			
3440	0.0984							3440	95.9	99.9	19.896		-55	0		50.16				149.60					99.88	99.44	99.561						1.9577	0.0984			
3450	0.1135							3450	95.9	99.9	19.962		-69	0		49.68				149.35					99.51	99.67	100.160						2.2657	0.1135			
3460	0.1110							3460	95.9	99.9	19.977		-86	0		50.28				149.36					99.82	99.08	99.259						2.2180	0.1110			
3470	0.1009							3470	95.9	99.9	19.957		-63	0		49.61				149.81					99.71	100.20	100.496						2.0130	0.1009			
3480	0.1133							3480	95.9	99.9	19.999		-80	0		49.46				149.04					99.25	99.59	100.339						2.2656	0.1133			
3490	0.1016							3490	95.9	99.9	19.956		-63	0		49.62				149.76					99.69	100.14	100.457						2.0271	0.1016			
3500	0.1009							3500	95.9	99.9	19.923		-62	0		49.90				149.99					99.94	100.08	100.141						2.0109	0.1009			
3510	0.1074							3510	95.9	100.0	20.005		-80	0		50.50				148.87					99.68	98.37	98.687						2.1483	0.1074			
3520	0.1000							3520	95.9	100.0	19.947		-65	0		50.27				148.99					99.63	98.72	99.088						1.9956	0.1000			
3530	0.1151							3530	95.9	100.0	19.936		-69	0		49.55				149.97					99.76	100.43	100.669						2.2942	0.1151			
3540	0.1119							3540	96.0	100.0	19.955		-72	1		49.70				149.79					99.75	100.09	100.341						2.2324	0.1119			
3550	0.0981							3550	96.0	100.0	19.951		-69	0		50.73				149.75					100.24	99.02	98.778						1.9564	0.0981			
3560	0.1086							3560	96.0	100.0	19.947		-70	0		49.66				149.78					99.72	100.12	100.399						2.1660	0.1086			
3570	0.0960							3570	96.0	100.0	19.944		-66	0		50.21				149.67					99.94	99.46	99.515						1.9147	0.0960			
3580	0.1115							3580	96.0	100.0	19.999		-82	0		49.80				150.39					100.10	100.58	100.487						2.2298	0.1115			
3590	0.1068							3590	96.0	100.0	19.930		-70	0		50.42				149.77					100.10	99.35	99.250						2.1292	0.1068			
3600	0.0984							3600	96.0	100.0	19.936		-61	0		50.15				149.66					99.91	99.51	99.600						1.9624	0.0984			
3610	0.1101							3610	96.0	100.0	19.976		-80	0		49.48				151.00					100.24	101.52	101.280						2.1996	0.1101			
3620	0.1020							3620	96.0	100.1	19.903		-61	0		49.53				149.90					99.71	100.37	100.656						2.0301	0.1020			
3630	0.1100							3630	96.0	100.1	19.974		-79	0		50.82				149.31					100.06	98.49	98.428						2.1966	0.1100			
3640	0.1001							3640	96.0	100.1	19.926		-76	0		50.14				150.38					100.26	100.23	99.973						1.9949	0.1001			
3650	0.1012							3650	96.0	100.1	19.920		-59	0		49.92				150.00					99.96	100.09	100.127						2.0151	0.1012			
3660	0.1112							3660	96.0	100.1	19.953		-71	0		50.91				151.18					101.05	100.27	99.228						2.2184	0.1112			
3670	0.0983							3670	96.0	100.1	19.925		-62	0		50.62				149.80					100.21	99.19	98.979						1.9588	0.0983			
3680	0.0991							3680	96.0	100.1	19.945		-64	0		50.27				150.29					100.28	100.02	99.736						1.9765	0.0991			
3690	0.1100							3690	96.0	100.1	20.011		-80	0		49.80				150.19					99.99	100.40	100.402						2.2004	0.1100			
3700	0.1043							3700	96.0	100.0	19.963		-71	0		49.87				150.65					100.26	100.78	100.519						2.0825	0.1043			
3710	0.1087							3710	96.0	100.0	19.980		-75	0		50.07				149.17					99.62	99.11	99.486						2.1723	0.1087			
3720	0.0985							3720	96.0	100.0	19.962		-66	0		50.39				150.11					100.25	99.72	99.469						1.9672	0.0985			
3730	0.0985							3730	96.0	100.0	19.970		-68	0		50.15				149.78					99.96	99.64	99.673						1.9677	0.0985			
3740	0.1059							3740	95.9	100.0	19.986		-74	0		50.01				149.80					99.90	99.79	99.886						2.1167	0.1059			
3750	0.1079							3750	95.9	100.0	20.002		-79	0		50.01				150.25					100.13	100.25	100.115						2.1580	0.1079			
3760	0.0977							3760	95.9	100.0	19.948		-66	0		49.84				150.36					100.10	100.52	100.421						1.9485	0.0977			
3770	0.1078							3770	95.9	100.0	20.004		-83	7		49.96				149.72					99.84	99.76	99.916						2.1568	0.1078			
3780	0.0994							3780	95.9	100.0	19.890		-51	0		50.06				150.73					100.40	100.66	100.266						1.9777	0.0994			
3790	0.1064							3790	95.9	100.0	19.985		-80	2		49.60				150.62					100.11	101.03	100.915						2.1261	0.1064			
3800	0.0993							3800	95.9	100.0	19.923		-59	0		50.06				149.90					99.98	99.85	99.865						1.9785	0.0993			
3810	0.0997							3810	95.9	99.9	19.976		-68	0		49.65				150.25					99.95	100.60	100.655						1.9911	0.0997			
3820	0.1078							3820	95.9	99.9	19.988		-81	0		49.91				149.91					99.91	100.00	100.088						2.1549	0.1078			
3830	0.0996							3830	95.9	99.9	19.947		-62	0		50.00				149.60					99.80	99.60	99.799						1.9871	0.0996			
3840	0.1088							3840	95.9	99.9	19.962		-65	0		50.33				148.79					99.56	98.46	98.901						2.1712	0.1088			
3850	0.1005							3850	95.9	99.9	19.974		-70	0		49.73				149.75					99.74	100.02	100.284						2.0070	0.1005			
3860	0.0991							3860	95.9	99.9	19.956		-73	0		49.78				149.97					99.88	100.20	100.320						1.9777	0.0991			
3870	0.0999							3870	95.9	100.0	19.974		-79	0		49.28				150.30					99.79	101.03	101.236						1.9945	0.0999			
3880	0.1087							3880	95.9	99.9	19.950		-69	0		50.06				149.55					99.80	99.49	99.690						2.1694	0.1087			
3890	0.0983							3890	95.9	100.0	19.941		-60	0		50.59				149.45					100.02	98.86	98.846						1.9600	0.0983			
3900	0.1068							3900	95.9	100.0	19.986		-73	0		50.07				150.55					100.31	100.48	100.172						2.1354	0.1068			
3910	0.0991							3910	95.9	100.0	19.932		-59	0		50.01				150.49					100.25	100.48	100.230						1.9749	0.0991			
3920	0.1020							3920	96.0	100.0	19.946		-70	0		49.85				150.09					99.97	100.25	100.279						2.0341	0.1020			
3930	0.1002							3930	96.0	100.0	19.959		-63	0		49.92				149.85					99.88	99.93	100.044						1.9993	0.1002			
3940	0.1065							3940	96.0	100.0	20.014		-82	0		50.12				150.19					100.15	100.08	99.922						2.1322	0.1065			
3950	0.0990							3950	96.0	100.0	19.951		-65	0		49.51				151.03					100.27	101.52	101.248						1.9758	0.0990			
3960	0.1074							3960	96.0	100.0	19.985		-76	0		50.50				149.50					100.00	99.00	98.997						2.1470	0.1074			
3970	0.0980							3970	96.0	100.0	19.959		-69	0		50.18				149.59					99.89	99.41	99.521						1.9553	0.0980			
3980	0.1068							3980	96.0	100.0	19.973		-73	0		49.94				149.56					99.75	99.62	99.866						2.1327	0.1068			
3990	0.0988							3990	96.0	100.0	19.974		-72	0		49.84				150.69					100.26	100.85	100.582						1.9743	0.0988			
4000	0.1080							4000	96.0	100.0	19.951		-70	0		49.53				150.10					99.81	100.56	100.748						2.1538	0.1080			
4010	0.1073							4010	96.0	100.1	19.959		-65	0		50.53				150.04					100.28	99.50	99.223						2.1414	0.1073			
4020	0.0995							4020	96.0	100.1	19.962		-68	0		49.85				149.89					99.87	100.04	100.165						1.9862	0.0995			
4030	0.0994							4030	96.0	100.1	19.969		-73	0		50.30				150.91					100.60	100.61	100.006						1.9859	0.0994			
4040	0.1051							4040	96.0	100.1	19.972		-73	0		49.87				149.45					99.66	99.58	99.917						2.1000	0.1051			
4050	0.1008							4050	96.0	100.1	19.965		-70	0		49.74				149.60					99.67	99.86	100.192						2.0134	0.1008			
4060	0.1046							4060	96.0	100.1	19.992		-79	0		50.11				150.11					100.11	100.00	99.894						2.0920	0.1046			
4070	0.0995							4070	96.0	100.0	19.917		-58	0		50.02				150.07					100.04	100.06	100.013						1.9827	0.0995			
4080	0.1033							4080	96.0	100.0	19.899		-55	0		49.74				150.76					100.25	101.02	100.762						2.0562	0.1033			
4090	0.1060							4090	96.0	100.0	20.026		-87	0		50.14				150.10					100.12	99.96	99.838						2.1226	0.1060			
4100	0.1023							4100	96.0	100.0	19.911		-62	0		50.12				149.79					99.96	99.67	99.716						2.0378	0.1023			
4110	0.1058							4110	96.0	100.0	20.008		-83	0		50.08				149.90					99.99	99.82	99.833						2.1175	0.1058			
4120	0.1071							4120	96.0	100.0	19.927		-65	0		50.10				149.81					99.95	99.71	99.755						2.1348	0.1071			
4130	0.1004							4130	95.9	100.0	19.971		-71	0		49.69				150.18					99.93	100.49	100.561						2.0057	0.1004			
4140	0.1067							4140	95.9	100.0	19.980		-72	0		49.99				150.25					100.12	100.27	100.144						2.1310	0.1067			
4150	0.1005							4150	95.9	100.0	19.983		-77	0		50.41				149.84					100.12	99.43	99.307						2.0079	0.1005			
4160	0.1064							4160	95.9	100.0	19.961		-69	0		50.17				150.01					100.09	99.84	99.755						2.1234	0.1064			
4170	0.1037							4170	95.9	100.0	19.936		-70	0		50.15				150.10					100.13	99.94	99.818						2.0673	0.1037			
4180	0.1019							4180	95.9	100.0	19.964		-65	0		50.25				150.07					100.16	99.82	99.657						2.0353	0.1019			
4190	0.1054							4190	95.9	100.0	19.920		-66	0		49.85				150.04					99.94	100.18	100.236						2.1005	0.1054			
4200	0.1061							4200	95.9	100.0	19.955		-67	0		50.26				149.86					100.06	99.60	99.543						2.1171	0.1061			
4210	0.1011							4210	95.9	99.9	19.941		-63	0		50.08				150.70					100.39	100.63	100.233						2.0164	0.1011			
4220	0.1054							4220	95.9	99.9	20.038		-86	0		50.05				149.34					99.70	99.29	99.594						2.1120	0.1054			
4230	0.1033							4230	95.9	99.9	19.920		-58	0		50.11				150.33					100.22	100.23	100.004						2.0586	0.1033			
4240	0.1048							4240	95.9	99.9	20.008		-79	0		49.91				149.84					99.87	99.93	100.056						2.0959	0.1048			
4250	0.1034							4250	95.9	99.9	19.924		-55	0		50.05				150.62					100.34	100.56	100.226						2.0602	0.1034			
4260	0.1060							4260	95.9	99.9	19.993		-74	0		50.10				150.14					100.12	100.05	99.927						2.1191	0.1060			
4270	0.1010							4270	95.9	100.0	20.011		-86	0		49.66				150.23					99.94	100.57	100.628						2.0209	0.1010			
4280	0.1028							4280	95.9	100.0	19.938		-60	0		50.05				150.00					100.03	99.95	99.920						2.0503	0.1028			
4290	0.1074							4290	95.9	100.0	19.996		-79	0		50.04				149.77					99.91	99.73	99.823						2.1478	0.1074			
4300	0.1020							4300	96.0	100.0	19.917		-59	0		49.92				149.88					99.90	99.96	100.062						2.0322	0.1020			
4310	0.1074							4310	96.0	100.0	19.917		-63	0		50.21				149.90					100.05	99.69	99.639						2.1391	0.1074			
4320	0.1050							4320	96.0	100.0	19.911		-74	0		50.10				150.23					100.17	100.13	99.963						2.0899	0.1050			
4330	0.1052							4330	96.0	100.0	19.959		-73	0		49.97				149.48					99.72	99.51	99.785						2.0993	0.1052			
4340	0.1071							4340	96.0	100.0	19.963		-70	0		49.80				150.16					99.98	100.36	100.383						2.1371	0.1071			
4350	0.1036							4350	96.0	100.0	19.952		-65	0		49.89				149.62					99.76	99.73	99.969						2.0664	0.1036			
4360	0.1069							4360	96.0	100.0	19.986		-80	0		50.00				150.01					100.00	100.02	100.011						2.1361	0.1069			
4370	0.1040							4370	96.0	100.0	19.905		-57	0		50.06				149.85					99.96	99.79	99.830						2.0703	0.1040			
4380	0.1098							4380	96.0	100.0	20.008		-82	0		50.12				149.84					99.98	99.72	99.744						2.1959	0.1098			
4390	0.1064							4390	96.0	100.0	19.996		-80	0		49.85				149.92					99.89	100.06	100.178						2.1279	0.1064			
4400	0.1034							4400	96.0	100.0	19.920		-58	0		49.98				150.05					100.02	100.07	100.056						2.0607	0.1034			
4410	0.1047							4410	96.0	100.1	19.945		-67	0		50.04				150.19					100.12	100.15	100.039						2.0881	0.1047			
4420	0.1064							4420	96.0	100.1	19.997		-76	0		49.80				150.23					100.02	100.43	100.409						2.1284	0.1064			
4430	0.1032							4430	96.0	100.1	19.947		-63	0		49.87				149.82					99.84	99.94	100.098						2.0578	0.1032			
4440	0.1068							4440	96.0	100.1	19.990		-77	0		50.23				150.54					100.38	100.30	99.922						2.1356	0.1068			
4450	0.1053							4450	96.0	100.1	19.983		-78	0		49.91				150.09					100.00	100.17	100.174						2.1035	0.1053			
4460	0.1044							4460	96.0	100.1	19.920		-65	0		50.25				150.27					100.26	100.02	99.767						2.0801	0.1044			
4470	0.1067							4470	96.0	100.1	19.972		-68	1		50.02				150.11					100.06	100.09	100.025						2.1310	0.1067			
4480	0.1075							4480	96.0	100.0	19.963		-68	0		50.13				149.83					99.98	99.70	99.724						2.1465	0.1075			
4490	0.1068							4490	96.0	100.0	19.973		-70	0		50.06				150.14					100.10	100.09	99.987						2.1337	0.1068			
4500	0.1080							4500	96.0	100.0	19.970		-71	0		49.83				149.94					99.88	100.11	100.231						2.1563	0.1080			
4510	0.1038							4510	96.0	100.0	19.976		-66	0		49.77				149.87					99.82	100.11	100.286						2.0738	0.1038			
4520	0.1084							4520	96.0	100.0	19.990		-77	0		50.03				150.29					100.16	100.26	100.104						2.1666	0.1084			
4530	0.1065							4530	96.0	100.0	19.997		-74	0		50.13				150.28					100.21	100.15	99.947						2.1306	0.1065			
4540	0.1058							4540	96.0	100.0	19.926		-60	0		50.14				150.34					100.24	100.20	99.962						2.1081	0.1058			
4550	0.1073							4550	95.9	100.0	20.020		-83	0		49.73				150.01					99.87	100.29	100.416						2.1475	0.1073			
4560	0.1066							4560	95.9	100.0	20.041		-88	0		49.93				150.03					99.98	100.10	100.120						2.1369	0.1066			
4570	0.1064							4570	95.9	100.0	19.999		-70	0		50.16				150.08					100.12	99.92	99.795						2.1285	0.1064			
4580	0.1066							4580	95.9	100.0	19.935		-54	0		50.12				150.17					100.14	100.05	99.907						2.1261	0.1066			
4590	0.1075							4590	95.9	100.0	19.974		-77	0		49.83				150.10					99.96	100.27	100.305						2.1479	0.1075			
4600	0.1065							4600	95.9	99.9	19.934		-62	0		50.06				149.85					99.95	99.79	99.840						2.1240	0.1065			
4610	0.1089							4610	95.9	99.9	20.005		-75	0		49.92				149.53					99.73	99.61	99.882						2.1779	0.1089			
4620	0.1075							4620	95.9	99.9	19.990		-75	0		49.84				150.44					100.14	100.60	100.459						2.1487	0.1075			
4630	0.1084							4630	95.9	99.9	19.983		-70	0		49.58				150.08					99.83	100.51	100.677						2.1667	0.1084			
4640	0.1077							4640	95.9	99.9	19.950		-66	0		50.12				149.77					99.95	99.65	99.699						2.1481	0.1077			
4650	0.1071							4650	95.9	100.0	19.975		-71	0		50.37				149.83					100.10	99.46	99.360						2.1400	0.1071			
4660	0.1077							4660	95.9	100.0	19.944		-67	0		50.35				149.77					100.06	99.43	99.367						2.1471	0.1077			
4670	0.1064							4670	96.0	100.0	19.962		-70	0		50.10				149.88					99.99	99.78	99.789						2.1235	0.1064			
4680	0.1093							4680	96.0	100.0	19.995		-74	0		49.63				149.98					99.81	100.35	100.544						2.1853	0.1093			
4690	0.1062							4690	96.0	100.0	19.899		-57	0		50.03				150.19					100.11	100.17	100.059						2.1135	0.1062			
4700	0.1079							4700	96.0	100.0	20.014		-82	0		50.11				149.96					100.04	99.85	99.817						2.1596	0.1079			
4710	0.1062							4710	96.0	100.0	19.911		-56	0		50.32				150.13					100.23	99.81	99.589						2.1154	0.1062			
4720	0.1080							4720	96.0	100.0	19.984		-76	0		50.32				150.04					100.18	99.71	99.533						2.1592	0.1080			
4730	0.1060							4730	96.0	100.0	19.930		-59	0		50.18				149.88					100.03	99.70	99.673						2.1126	0.1060			
4740	0.1109							4740	96.0	100.0	19.959		-76	0		49.84				149.99					99.92	100.16	100.241						2.2129	0.1109			
4750	0.1091							4750	96.0	100.0	19.976		-73	0		50.15				149.94					100.05	99.79	99.741						2.1791	0.1091			
4760	0.1078							4760	96.0	100.0	19.950		-56	0		50.04				149.89					99.97	99.85	99.885						2.1514	0.1078			
4770	0.1103							4770	96.0	100.0	19.996		-78	0		49.73				149.89					99.81	100.16	100.353						2.2050	0.1103			
4780	0.1072							4780	96.0	100.0	20.008		-75	0		50.21				150.01					100.11	99.80	99.686						2.1446	0.1072			
4790	0.1071							4790	96.0	100.0	19.952		-69	0		50.12				149.91					100.02	99.79	99.772						2.1362	0.1071			
4800	0.1079							4800	96.0	100.0	19.952		-68	0		50.11				150.17					100.14	100.06	99.925						2.1520	0.1079			
4810	0.1072							4810	96.0	100.0	19.956		-70	0		50.20				150.06					100.13	99.86	99.730						2.1395	0.1072			
4820	0.1077							4820	96.0	100.0	19.949		-70	0		50.14				150.08					100.11	99.95	99.836						2.1477	0.1077			
4830	0.1080							4830	96.0	100.0	19.956		-65	0		49.95				150.01					99.98	100.06	100.087						2.1553	0.1080			
4840	0.1070							4840	96.0	100.0	19.944		-67	0		50.19				149.47					99.83	99.27	99.442						2.1338	0.1070			
4850	0.1075							4850	96.0	100.0	20.011		-82	0		50.02				150.04					100.03	100.01	99.984						2.1502	0.1075			
4860	0.1080							4860	96.0	100.0	19.920		-63	0		50.02				149.93					99.98	99.90	99.927						2.1509	0.1080			
4870	0.1107							4870	96.0	100.0	19.899		-49	0		49.91				149.73					99.82	99.81	99.995						2.2033	0.1107			
4880	0.1088							4880	96.0	100.0	19.961		-79	0		50.20				149.96					100.08	99.76	99.675						2.1709	0.1088			
4890	0.1080							4890	96.0	100.0	19.973		-72	0		50.19				149.91					100.05	99.72	99.675						2.1568	0.1080			
4900	0.1118							4900	96.0	100.0	19.948		-64	0		49.85				149.95					99.90	100.10	100.204						2.2308	0.1118			
4910	0.1098							4910	96.0	100.0	19.968		-73	0		49.84				149.82					99.83	99.98	100.154						2.1932	0.1098			
4920	0.1100							4920	96.0	100.0	19.950		-66	0		50.24				149.53					99.89	99.28	99.398						2.1950	0.1100			
4930	0.1100							4930	96.0	100.0	19.963		-70	0		49.89				149.69					99.79	99.81	100.016						2.1966	0.1100			
4940	0.1105							4940	96.0	100.0	19.956		-70	0		50.03				150.28					100.16	100.24	100.090						2.2057	0.1105			
4950	0.1086							4950	96.0	100.0	19.953		-70	0		50.17				149.98					100.07	99.81	99.736						2.1663	0.1086			
4960	0.1094							4960	96.0	100.0	20.008		-77	0		50.09				149.50					99.79	99.40	99.611						2.1883	0.1094			
4970	0.1118							4970	95.9	100.0	19.921		-71	0		49.94				149.67					99.81	99.73	99.920						2.2279	0.1118			
4980	0.1100							4980	95.9	100.0	19.936		-61	0		50.29				150.07					100.18	99.78	99.598						2.1929	0.1100			
4990	0.1102							4990	95.9	100.0	19.944		-73	0		49.90				149.88					99.89	99.98	100.085						2.1985	0.1102			
5000	0.1091							5000	96.0	100.0	19.961		-74	0		49.90				149.78					99.84	99.88	100.038						2.1787	0.1091			
5010	0.1103							5010	95.9	100.0	19.951		-62	0		50.17				149.64					99.91	99.47	99.567						2.2010	0.1103			
5020	0.1100							5020	95.9	100.0	19.980		-70	0		49.82				150.01					99.91	100.20	100.283						2.1987	0.1100			
5030	0.1090							5030	95.9	100.0	20.004		-82	0		50.12				150.35					100.23	100.23	100.000						2.1802	0.1090			
5040	0.1113							5040	96.0	100.0	20.012		-79	0		50.11				150.29					100.20	100.18	99.973						2.2283	0.1113			
5050	0.1090							5050	96.0	100.0	19.926		-52	0		49.75				149.94					99.84	100.19	100.348						2.1718	0.1090			
5060	0.1079							5060	96.0	100.0	19.965		-70	0		50.18				150.05					100.11	99.87	99.760						2.1542	0.1079			
5070	0.1090							5070	96.0	100.0	20.023		-80	0		50.09				149.61					99.85	99.51	99.661						2.1822	0.1090			
5080	0.1094							5080	96.0	100.0	19.944		-67	0		49.85				150.23					100.04	100.38	100.346						2.1811	0.1094			
5090	0.1104							5090	96.0	100.0	19.967		-67	0		50.14				150.19					100.16	100.06	99.892						2.2043	0.1104			
5100	0.1126							5100	96.0	100.0	19.953		-69	0		50.08				149.78					99.93	99.71	99.777						2.2462	0.1126			
5110	0.1081							5110	96.0	100.0	19.981		-72	0		50.11				149.70					99.90	99.58	99.679						2.1594	0.1081			
5120	0.1128							5120	96.0	100.0	19.938		-66	0		50.43				150.00					100.21	99.57	99.361						2.2486	0.1128			
5130	0.1102							5130	96.0	100.0	19.983		-71	0		50.00				149.90					99.95	99.90	99.956						2.2012	0.1102			
5140	0.1112							5140	96.0	100.0	20.005		-81	0		50.18				150.10					100.14	99.92	99.782						2.2243	0.1112			
5150	0.1100							5150	96.0	100.0	19.928		-59	0		49.82				150.37					100.09	100.55	100.458						2.1916	0.1100			
5160	0.1107							5160	96.0	100.0	19.951		-67	1		50.05				149.63					99.84	99.58	99.739						2.2092	0.1107			
5170	0.1103							5170	96.0	100.0	19.984		-75	0		49.96				149.94					99.95	99.98	100.027						2.2041	0.1103			
5180	0.1125							5180	96.0	100.0	19.921		-59	0		50.01				149.92					99.96	99.91	99.950						2.2408	0.1125			
5190	0.1111							5190	96.0	100.0	19.999		-83	0		49.80				150.14					99.97	100.34	100.369						2.2212	0.1111			
5200	0.1104							5200	96.0	100.0	19.917		-64	0		49.94				150.04					99.99	100.10	100.115						2.1988	0.1104			
5210	0.1108							5210	96.0	100.0	19.961		-62	0		50.14				149.70					99.92	99.56	99.640						2.2116	0.1108			
5220	0.1111							5220	96.0	100.0	19.970		-74	0		49.85				150.00					99.93	100.14	100.218						2.2190	0.1111			
5230	0.1118							5230	96.0	100.0	19.993		-81	0		50.26				150.23					100.24	99.97	99.730						2.2343	0.1118			
5240	0.1111							5240	96.0	100.0	19.968		-69	0		49.96				150.19					100.08	100.23	100.154						2.2192	0.1111			
5250	0.1103							5250	96.0	100.0	19.956		-70	0		49.78				150.71					100.24	100.93	100.680						2.2009	0.1103			
5260	0.1126							5260	96.0	100.0	19.967		-71	0		50.04				149.83					99.94	99.79	99.848						2.2479	0.1126			
5270	0.1103							5270	96.0	100.0	19.945		-70	0		49.95				150.01					99.98	100.06	100.081						2.2002	0.1103			
5280	0.1122							5280	96.0	100.0	19.944		-65	0		50.01				150.02					100.02	100.01	99.991						2.2376	0.1122			
5290	0.1145							5290	96.0	100.0	19.917		-59	0		50.20				150.00					100.10	99.80	99.701						2.2814	0.1145			
5300	0.1117							5300	96.0	100.0	20.005		-82	0		49.99				149.92					99.96	99.93	99.973						2.2341	0.1117			
5310	0.1113							5310	96.0	100.0	20.011		-81	0		49.72				149.81					99.77	100.10	100.332						2.2279	0.1113			
5320	0.1137							5320	95.9	100.0	19.923		-59	0		49.97				150.21					100.09	100.24	100.150						2.2662	0.1137			
5330	0.1113							5330	96.0	100.0	19.976		-71	0		50.03				150.08					100.06	100.05	99.996						2.2232	0.1113			
5340	0.1113							5340	95.9	100.0	20.004		-78	0		49.91				149.92					99.92	100.01	100.097						2.2260	0.1113			
5350	0.1122							5350	95.9	100.0	19.941		-55	0		50.26				150.44					100.35	100.18	99.827						2.2377	0.1122			
5360	0.1131							5360	95.9	100.0	19.989		-75	0		49.92				150.08					100.00	100.16	100.156						2.2600	0.1131			
5370	0.1118							5370	95.9	100.0	20.026		-84	0		49.89				149.85					99.87	99.96	100.096						2.2379	0.1118			
5380	0.1141							5380	96.0	100.0	19.980		-70	4		50.05				149.85					99.95	99.81	99.858						2.2806	0.1141			
5390	0.1111							5390	95.9	100.0	19.929		-61	8		49.92				150.17					100.04	100.25	100.206						2.2138	0.1111			
5400	0.1150							5400	96.0	100.0	19.968		-72	0		50.14				149.96					100.05	99.82	99.766						2.2973	0.1150			
5410	0.1127							5410	96.0	100.0	19.965		-70	0		50.24				149.87					100.06	99.63	99.576						2.2492	0.1127			
5420	0.1115							5420	96.0	100.0	19.965		-75	0		49.79				150.36					100.08	100.57	100.491						2.2268	0.1115			
5430	0.1125							5430	96.0	100.0	19.960		-68	0		50.00				150.55					100.28	100.55	100.270						2.2446	0.1125			
5440	0.1125							5440	96.0	100.0	19.974		-77	0		50.21				149.76					99.99	99.55	99.561						2.2473	0.1125			
5450	0.1124							5450	96.0	100.0	19.978		-77	0		50.21				150.07					100.14	99.86	99.716						2.2446	0.1124			
5460	0.1131							5460	96.0	100.0	19.921		-61	0		50.06				149.73					99.90	99.67	99.772						2.2529	0.1131			
5470	0.1125							5470	96.0	100.0	19.977		-75	0		49.91				150.20					100.06	100.29	100.238						2.2473	0.1125			
5480	0.1133							5480	96.0	100.0	20.005		-84	0		49.76				149.90					99.83	100.14	100.311						2.2672	0.1133			
5490	0.1128							5490	96.0	100.0	19.920		-67	0		49.92				150.38					100.15	100.46	100.316						2.2476	0.1128			
5500	0.1137							5500	96.0	100.0	19.926		-54	0		49.85				149.80					99.82	99.96	100.134						2.2657	0.1137			
5510	0.1132							5510	96.0	100.0	20.004		-79	0		49.76				149.96					99.86	100.20	100.343						2.2640	0.1132			
5520	0.1164							5520	96.0	100.0	19.949		-66	0		50.05				150.33					100.19	100.28	100.089						2.3217	0.1164			
5530	0.1129							5530	96.0	100.0	19.977		-67	0		49.85				149.89					99.87	100.03	100.163						2.2546	0.1129			
5540	0.1160							5540	96.0	100.0	19.986		-78	0		49.98				150.05					100.01	100.07	100.060						2.3181	0.1160			
5550	0.1116							5550	96.0	100.0	19.962		-65	0		50.04				150.01					100.02	99.97	99.947						2.2279	0.1116			
5560	0.1122							5560	96.0	100.0	19.926		-64	0		49.95				150.63					100.29	100.68	100.386						2.2353	0.1122			
5570	0.1120							5570	96.0	100.0	19.971		-67	0		49.79				149.80					99.80	100.01	100.210						2.2370	0.1120			
5580	0.1120							5580	96.0	100.0	19.941		-73	0		49.97				150.13					100.05	100.16	100.105						2.2336	0.1120			
5590	0.1146							5590	96.0	100.0	19.978		-76	0		49.90				150.19					100.05	100.29	100.243						2.2889	0.1146			
5600	0.1143							5600	96.0	100.0	19.949		-59	0		50.15				149.95					100.05	99.80	99.745						2.2810	0.1143			
5610	0.1143							5610	96.0	100.0	19.981		-74	0		50.09				150.02					100.06	99.93	99.871						2.2843	0.1143			
5620	0.1115							5620	96.0	100.0	19.970		-72	0		49.99				149.76					99.88	99.77	99.895						2.2275	0.1115			
5630	0.1130							5630	96.0	100.0	19.896		-52	0		50.07				149.74					99.90	99.67	99.764						2.2474	0.1130			
5640	0.1124							5640	96.0	100.0	20.017		-81	0		50.12				150.17					100.14	100.05	99.911						2.2500	0.1124			
5650	0.1134							5650	96.0	100.0	19.929		-64	0		49.96				149.99					99.97	100.04	100.062						2.2609	0.1134			
5660	0.1123							5660	96.0	100.0	19.924		-56	0		50.13				149.88					100.01	99.75	99.740						2.2381	0.1123			
5670	0.1164							5670	96.0	100.0	19.943		-67	0		49.97				150.06					100.01	100.09	100.074						2.3218	0.1164			
5680	0.1165							5680	96.0	100.0	19.982		-75	0		49.76				150.01					99.89	100.25	100.369						2.3277	0.1165			
5690	0.1132							5690	96.0	100.0	19.925		-63	0		50.35				150.12					100.24	99.77	99.536						2.2563	0.1132			
5700	0.1137							5700	96.0	100.0	19.941		-73	0		50.16				150.08					100.12	99.93	99.808						2.2672	0.1137			
5710	0.1145							5710	96.0	100.0	19.990		-73	0		50.02				150.14					100.08	100.13	100.047						2.2883	0.1145			
5720	0.1123							5720	96.0	100.0	19.981		-71	0		50.11				150.03					100.07	99.92	99.851						2.2437	0.1123			
5730	0.1148							5730	96.0	100.0	19.959		-67	0		49.89				150.14					100.02	100.26	100.243						2.2911	0.1148			
5740	0.1160							5740	96.0	100.0	19.935		-60	0		50.30				150.18					100.24	99.88	99.640						2.3122	0.1160			
5750	0.1157							5750	96.0	100.0	19.977		-69	0		50.24				149.72					99.98	99.49	99.505						2.3119	0.1157			
5760	0.1133							5760	96.0	100.0	19.946		-79	0		49.95				150.06					100.01	100.11	100.099						2.2598	0.1133			
5770	0.1177							5770	96.0	100.0	19.935		-60	0		50.04				149.98					100.01	99.94	99.935						2.3463	0.1177			
5780	0.1129							5780	96.0	100.0	19.965		-76	0		50.02				150.16					100.09	100.14	100.053						2.2541	0.1129			
5790	0.1141							5790	96.0	100.0	19.998		-80	0		49.87				150.16					100.01	100.28	100.269						2.2814	0.1141			
5800	0.1139							5800	96.0	100.0	19.927		-56	0		50.00				150.01					100.01	100.01	100.000						2.2702	0.1139			
5810	0.1165							5810	96.0	100.0	19.962		-68	0		49.98				149.84					99.91	99.86	99.955						2.3262	0.1165			
5820	0.1120							5820	96.0	100.0	20.020		-84	0		49.81				150.18					99.99	100.38	100.382						2.2412	0.1120			
5830	0.1177							5830	96.0	100.0	19.965		-68	0		50.13				149.90					100.02	99.77	99.753						2.3494	0.1177			
5840	0.1127							5840	96.0	100.0	19.902		-61	0		49.82				150.26					100.04	100.44	100.395						2.2439	0.1127			
5850	0.1161							5850	96.0	100.0	19.969		-75	0		49.74				150.00					99.87	100.26	100.395						2.3185	0.1161			
5860	0.1160							5860	96.0	100.0	19.968		-67	0		50.08				150.23					100.16	100.15	99.988						2.3159	0.1160			
5870	0.1127							5870	96.0	100.0	19.954		-70	0		50.10				149.69					99.89	99.59	99.695						2.2480	0.1127			
5880	0.1163							5880	96.0	100.0	19.964		-67	0		49.87				150.06					99.96	100.19	100.228						2.3225	0.1163			
5890	0.1160							5890	96.0	100.0	19.993		-78	0		49.98				150.36					100.17	100.38	100.203						2.3190	0.1160			
5900	0.1134							5900	96.0	100.0	19.959		-68	0		49.77				149.83					99.80	100.06	100.262						2.2635	0.1134			
5910	0.1166							5910	96.0	100.0	19.947		-58	0		50.06				149.69					99.87	99.63	99.753						2.3265	0.1166			
5920	0.1153							5920	96.0	100.0	19.965		-71	0		50.26				149.48					99.87	99.22	99.350						2.3025	0.1153			
5930	0.1155							5930	96.0	100.0	19.997		-80	0		49.76				150.05					99.90	100.29	100.392						2.3092	0.1155			
5940	0.1148							5940	96.0	100.0	19.939		-59	0		49.97				150.46					100.21	100.48	100.270						2.2883	0.1148			
5950	0.1128							5950	96.0	100.0	19.938		-57	0		49.89				149.96					99.93	100.07	100.141						2.2487	0.1128			
5960	0.1147							5960	96.0	100.0	20.001		-80	0		49.89				149.74					99.81	99.85	100.040						2.2942	0.1147			
5970	0.1157							5970	96.0	100.0	19.935		-63	0		50.21				150.22					100.22	100.01	99.792						2.3058	0.1157			
5980	0.1178							5980	96.0	100.0	19.902		-61	0		49.71				149.77					99.74	100.06	100.317						2.3440	0.1178			
5990	0.1146							5990	96.0	100.0	20.008		-77	0		50.15				150.30					100.23	100.15	99.925						2.2934	0.1146			
6000	0.1183							6000	96.0	100.0	19.959		-70	0		50.26				149.67					99.97	99.41	99.440						2.3612	0.1183			
6010	0.1129							6010	96.0	100.0	19.947		-65	0		49.97				150.36					100.17	100.39	100.229						2.2527	0.1129			
6020	0.1169							6020	96.0	100.0	19.962		-67	0		49.86				150.06					99.96	100.20	100.236						2.3329	0.1169			
6030	0.1196							6030	96.0	100.0	19.938		-66	0		50.00				149.84					99.92	99.84	99.922						2.3848	0.1196			
6040	0.1143							6040	96.0	100.0	20.002		-78	0		50.24				149.91					100.08	99.68	99.601						2.2855	0.1143			
6050	0.1151							6050	96.0	100.0	19.958		-65	0		49.81				150.03					99.92	100.21	100.297						2.2964	0.1151			
6060	0.1203							6060	96.0	100.0	19.933		-67	0		49.72				150.04					99.88	100.32	100.439						2.3989	0.1203			
6070	0.1136							6070	96.0	100.0	19.986		-78	0		50.07				149.71					99.89	99.64	99.753						2.2708	0.1136			
6080	0.1178							6080	96.0	100.0	19.914		-52	0		49.90				150.06					99.98	100.16	100.184						2.3464	0.1178			
6090	0.1141							6090	96.0	100.0	19.974		-69	0		50.16				150.06					100.11	99.90	99.787						2.2794	0.1141			
6100	0.1169							6100	96.0	100.0	19.968		-80	0		49.99				149.86					99.93	99.87	99.940						2.3339	0.1169			
6110	0.1169							6110	96.0	100.0	19.935		-58	0		49.77				150.35					100.06	100.58	100.520						2.3304	0.1169			
6120	0.1153							6120	96.0	100.0	19.975		-76	0		49.81				149.99					99.90	100.18	100.280						2.3035	0.1153			
6130	0.1197							6130	96.0	100.0	19.986		-73	0		49.87				150.11					99.99	100.24	100.254						2.3921	0.1197			
6140	0.1197							6140	96.0	100.0	19.908		-58	0		50.17				149.99					100.08	99.83	99.748						2.3825	0.1197			
6150	0.1157							6150	96.0	100.0	19.950		-73	0		50.39				150.40					100.40	100.01	99.613						2.3088	0.1157			
6160	0.1174							6160	96.0	100.0	19.993		-73	0		50.08				150.16					100.12	100.08	99.960						2.3465	0.1174			
6170	0.1168							6170	96.0	100.0	19.949		-70	0		49.75				149.58					99.66	99.83	100.164						2.3304	0.1168			
6180	0.1169							6180	96.0	100.0	19.948		-66	0		49.98				149.93					99.95	99.95	99.998						2.3312	0.1169			
6190	0.1194							6190	96.0	100.0	19.982		-72	0		50.08				150.22					100.15	100.14	99.993						2.3858	0.1194			
6200	0.1131							6200	96.0	100.0	19.964		-74	0		49.87				149.71					99.79	99.84	100.052						2.2571	0.1131			
6210	0.1152							6210	96.0	100.0	19.952		-63	0		49.89				149.83					99.86	99.94	100.084						2.2975	0.1152			
6220	0.1195							6220	96.0	100.0	19.947		-65	0		49.77				150.02					99.90	100.25	100.353						2.3837	0.1195			
6230	0.1139							6230	96.0	100.0	19.938		-86	0		49.91				149.95					99.93	100.03	100.103						2.2712	0.1139			
6240	0.1181							6240	96.0	100.0	19.920		-59	0		50.05				150.10					100.07	100.05	99.980						2.3522	0.1181			
6250	0.1156							6250	96.0	100.0	19.938		-58	0		49.94				150.19					100.07	100.25	100.184						2.3051	0.1156			
6260	0.1182							6260	96.0	100.0	20.015		-81	0		49.77				150.12					99.94	100.35	100.407						2.3649	0.1182			
6270	0.1170							6270	96.0	100.0	19.918		-63	0		50.13				150.12					100.13	99.99	99.858						2.3311	0.1170			
6280	0.1162							6280	96.0	100.0	19.971		-69	0		50.11				149.85					99.98	99.74	99.758						2.3207	0.1162			
6290	0.1160							6290	96.0	100.0	19.984		-77	0		50.16				150.03					100.09	99.86	99.771						2.3181	0.1160			
6300	0.1176							6300	96.0	100.0	19.971		-65	0		49.80				150.39					100.10	100.59	100.492						2.3493	0.1176			
6310	0.1154							6310	96.0	100.0	19.968		-65	0		50.03				150.02					100.03	99.99	99.964						2.3036	0.1154			
6320	0.1182							6320	96.0	100.0	19.986		-68	0		49.95				149.73					99.84	99.77	99.931						2.3614	0.1182			
6330	0.1122							6330	96.0	100.0	19.985		-77	0		49.97				149.63					99.80	99.65	99.854						2.2415	0.1122			
6340	0.1157							6340	96.0	100.0	19.954		-68	0		49.91				150.25					100.08	100.34	100.257						2.3080	0.1157			
6350	0.1196							6350	96.0	100.0	19.957		-65	0		50.07				150.16					100.12	100.08	99.967						2.3871	0.1196			
6360	0.1145							6360	96.0	100.0	19.955		-77	0		50.05				149.99					100.02	99.94	99.919						2.2858	0.1145			
6370	0.1184							6370	96.0	100.0	19.902		-56	0		50.01				149.54					99.78	99.53	99.755						2.3564	0.1184			
6380	0.1183							6380	96.0	100.0	19.902		-53	0		50.18				150.20					100.19	100.02	99.825						2.3540	0.1183			
6390	0.1142							6390	96.0	100.0	20.011		-84	0		50.05				150.43					100.24	100.38	100.138						2.2851	0.1142			
6400	0.1160							6400	96.0	100.0	20.011		-78	0		49.75				149.78					99.77	100.02	100.258						2.3218	0.1160			
6410	0.1174							6410	96.0	100.0	19.906		-62	0		50.27				149.49					99.88	99.21	99.331						2.3365	0.1174			
6420	0.1149							6420	96.0	100.0	19.953		-68	0		50.20				149.76					99.98	99.56	99.580						2.2917	0.1149			
6430	0.1168							6430	96.0	100.0	20.003		-78	0		49.86				150.54					100.20	100.68	100.475						2.3358	0.1168			
6440	0.1188							6440	96.0	100.0	19.949		-66	0		50.13				149.59					99.86	99.46	99.598						2.3697	0.1188			
6450	0.1165							6450	96.0	100.0	19.938		-68	0		49.93				149.69					99.81	99.76	99.951						2.3225	0.1165			
6460	0.1156							6460	96.0	100.0	19.997		-72	0		50.01				149.43					99.72	99.42	99.694						2.3115	0.1156			
6470	0.1190							6470	96.0	100.0	19.985		-70	0		50.16				150.39					100.27	100.23	99.960						2.3776	0.1190			
6480	0.1190							6480	96.0	100.0	19.933		-72	1		50.01				150.18					100.10	100.17	100.075						2.3713	0.1190			
6490	0.1135							6490	96.0	100.0	19.969		-70	2		50.49				150.13					100.31	99.64	99.327						2.2656	0.1135			
6500	0.1175							6500	96.0	100.0	19.946		-60	0		50.38				149.38					99.88	99.00	99.124						2.3428	0.1175			
6510	0.1165							6510	96.0	100.0	19.996		-81	0		50.05				149.99					100.02	99.95	99.928						2.3290	0.1165			
6520	0.1164							6520	96.0	100.0	19.980		-78	0		49.68				150.24					99.96	100.56	100.602						2.3247	0.1164			
6530	0.1194							6530	96.0	100.0	19.935		-51	0		50.00				149.94					99.97	99.94	99.970						2.3803	0.1194			
6540	0.1146							6540	96.0	100.0	19.984		-77	0		49.76				149.51					99.64	99.75	100.116						2.2898	0.1146			
6550	0.1186							6550	96.0	100.0	19.943		-68	0		49.84				150.11					99.98	100.26	100.288						2.3661	0.1186			
6560	0.1189							6560	96.0	100.0	19.936		-62	0		49.97				150.23					100.10	100.26	100.163						2.3705	0.1189			
6570	0.1183							6570	96.0	100.0	19.961		-63	0		49.92				149.82					99.87	99.90	100.034						2.3609	0.1183			
6580	0.1153							6580	96.0	100.0	20.003		-79	0		49.86				149.57					99.71	99.71	99.996						2.3066	0.1153			
6590	0.1191							6590	96.0	100.0	19.973		-70	0		49.79				150.49					100.14	100.69	100.556						2.3788	0.1191			
6600	0.1158							6600	96.0	100.0	19.932		-62	0		49.83				150.02					99.92	100.19	100.267						2.3075	0.1158			
6610	0.1186							6610	96.0	100.0	19.935		-68	0		50.08				150.07					100.08	99.99	99.916						2.3642	0.1186			
6620	0.1172							6620	96.0	100.0	19.962		-69	0		50.23				149.93					100.08	99.70	99.618						2.3389	0.1172			
6630	0.1138							6630	96.0	100.0	19.983		-79	0		49.78				150.14					99.96	100.36	100.396						2.2747	0.1138			
6640	0.1174							6640	96.0	100.0	19.935		-73	0		49.81				150.33					100.07	100.52	100.454						2.3397	0.1174			
6650	0.1173							6650	96.0	100.0	19.971		-67	0		50.06				150.30					100.18	100.24	100.065						2.3418	0.1173			
6660	0.1178							6660	96.0	100.0	19.911		-54	0		50.24				149.70					99.97	99.46	99.495						2.3465	0.1178			
6670	0.1152							6670	96.0	100.0	19.980		-73	0		50.04				150.42					100.23	100.38	100.151						2.3009	0.1152			
6680	0.1149							6680	96.0	100.0	19.980		-80	0		49.99				150.00					99.99	100.01	100.017						2.2957	0.1149			
6690	0.1190							6690	96.0	100.0	19.902		-58	0		50.13				150.30					100.21	100.17	99.960						2.3691	0.1190			
6700	0.1153							6700	96.0	100.0	20.004		-78	0		50.18				149.87					100.03	99.69	99.664						2.3065	0.1153			
6710	0.1172							6710	96.0	100.0	19.956		-70	0		50.13				150.19					100.16	100.06	99.904						2.3384	0.1172			
6720	0.1184							6720	96.0	100.0	19.905		-57	0		49.76				150.04					99.90	100.29	100.389						2.3559	0.1184			
6730	0.1143							6730	96.0	100.0	19.917		-69	0		50.22				149.63					99.92	99.40	99.478						2.2773	0.1143			
6740	0.1173							6740	96.0	100.0	20.017		-79	0		50.17				149.91					100.04	99.74	99.701						2.3472	0.1173			
6750	0.1175							6750	96.0	100.0	19.908		-68	0		49.91				149.58					99.75	99.67	99.921						2.3399	0.1175			
6760	0.1163							6760	96.0	100.0	19.942		-66	0		49.89				150.24					100.06	100.35	100.287						2.3184	0.1163			
6770	0.1207							6770	96.0	100.0	19.988		-70	0		49.93				149.83					99.88	99.90	100.025						2.4129	0.1207			
6780	0.1124							6780	96.0	100.0	19.917		-64	0		50.26				149.73					99.99	99.47	99.472						2.2384	0.1124			
6790	0.1207							6790	96.0	100.0	19.962		-64	0		50.37				150.18					100.27	99.81	99.539						2.4093	0.1207			
6800	0.1138							6800	96.0	100.0	19.959		-84	12		49.93				150.66					100.29	100.74	100.443						2.2722	0.1138			
6810	0.1211							6810	96.0	100.0	19.894		-64	0		49.97				150.29					100.13	100.32	100.189						2.4088	0.1211			
6820	0.1188							6820	96.0	100.0	19.883		-52	0		49.93				149.49					99.71	99.56	99.853						2.3622	0.1188			
6830	0.1154							6830	96.0	100.0	20.005		-78	1		50.11				149.90					100.01	99.79	99.784						2.3082	0.1154			
6840	0.1181							6840	96.0	100.0	19.931		-61	0		49.93				150.00					99.96	100.07	100.106						2.3533	0.1181			
6850	0.1158							6850	96.0	100.0	19.986		-73	0		50.06				150.16					100.11	100.10	99.989						2.3150	0.1158			
6860	0.1146							6860	96.0	100.0	20.014		-84	0		49.79				149.95					99.87	100.16	100.285						2.2941	0.1146			
6870	0.1174							6870	96.0	100.0	19.923		-58	0		49.96				150.28					100.12	100.32	100.198						2.3390	0.1174			
6880	0.1150							6880	96.0	100.0	19.954		-67	0		49.92				150.30					100.11	100.38	100.263						2.2955	0.1150			
6890	0.1172							6890	96.0	100.0	19.977		-73	0		49.83				150.33					100.08	100.50	100.416						2.3409	0.1172			
6900	0.1188							6900	96.0	100.0	19.975		-67	0		50.30				150.00					100.15	99.70	99.553						2.3728	0.1188			
6910	0.1162							6910	96.0	100.0	19.965		-70	0		49.82				149.56					99.69	99.74	100.053						2.3206	0.1162			
6920	0.1193							6920	96.0	100.0	19.982		-69	0		49.95				149.57					99.76	99.62	99.859						2.3844	0.1193			
6930	0.1178							6930	96.0	100.0	19.941		-72	10		50.02				150.53					100.27	100.51	100.235						2.3487	0.1178			
6940	0.1143							6940	96.0	100.0	19.944		-66	0		50.24				149.89					100.07	99.65	99.586						2.2794	0.1143			
6950	0.1197							6950	96.0	100.0	19.941		-65	0		50.19				149.63					99.91	99.44	99.532						2.3879	0.1197			
6960	0.1131							6960	96.0	100.0	20.014		-80	0		49.94				150.44					100.19	100.50	100.306						2.2629	0.1131			
6970	0.1207							6970	96.0	100.0	19.923		-57	0		49.80				149.88					99.84	100.08	100.241						2.4041	0.1207			
6980	0.1139							6980	96.0	100.0	19.952		-70	0		49.68				150.10					99.89	100.42	100.528						2.2718	0.1139			
6990	0.1150							6990	96.0	100.0	19.986		-79	0		50.02				149.57					99.79	99.55	99.752						2.2992	0.1150			
7000	0.1183							7000	96.0	100.0	19.914		-52	0		49.80				150.25					100.03	100.45	100.419						2.3560	0.1183			
7010	0.1147							7010	96.0	100.0	19.923		-70	0		50.14				150.21					100.17	100.07	99.898						2.2853	0.1147			
7020	0.1172							7020	96.0	100.0	19.976		-72	0		50.14				149.67					99.90	99.53	99.623						2.3418	0.1172			
7030	0.1170							7030	96.0	100.0	19.975		-71	0		49.68				150.13					99.91	100.45	100.548						2.3376	0.1170			
7040	0.1156							7040	96.0	100.0	19.976		-75	0		49.86				149.39					99.62	99.53	99.904						2.3100	0.1156			
7050	0.1198							7050	96.0	100.0	19.926		-65	0		49.70				150.24					99.97	100.54	100.568						2.3868	0.1198			
7060	0.1169							7060	96.0	100.0	19.959		-66	0		50.12				149.90					100.01	99.79	99.777						2.3333	0.1169			
7070	0.1199							7070	96.0	100.0	19.944		-67	0		50.22				149.92					100.07	99.70	99.633						2.3910	0.1199			
7080	0.1130							7080	96.0	100.0	19.970		-74	0		50.26				149.79					100.03	99.53	99.502						2.2569	0.1130			
7090	0.1173							7090	96.0	100.0	19.964		-66	0		49.81				150.16					99.98	100.34	100.360						2.3411	0.1173			
7100	0.1202							7100	96.0	100.0	19.973		-67	0		50.13				150.02					100.08	99.89	99.812						2.4010	0.1202			
7110	0.1119							7110	96.0	100.0	19.999		-76	0		49.92				150.49					100.20	100.57	100.360						2.2384	0.1119			
7120	0.1175							7120	96.0	100.0	19.914		-52	0		50.12				149.91					100.01	99.79	99.776						2.3392	0.1175			
7130	0.1136							7130	96.0	100.0	19.994		-81	0		49.98				149.92					99.95	99.94	99.995						2.2706	0.1136			
7140	0.1186							7140	96.0	100.0	20.176		-75	0		50.12				149.94					100.03	99.81	99.781						2.3932	0.1186			
7150	0.1193							7150	96.0	100.0	20.134		-62	0		49.96				150.03					100.00	100.07	100.072						2.4012	0.1193			
7160	0.1154							7160	96.0	100.0	20.168		-77	0		49.96				149.86					99.91	99.90	99.997						2.3274	0.1154			
7170	0.1191							7170	96.0	100.0	20.136		-63	0		49.86				150.12					99.99	100.26	100.264						2.3986	0.1191			
7180	0.1131							7180	96.0	100.0	20.143		-65	1		49.86				150.20					100.03	100.34	100.310						2.2772	0.1131			
7190	0.1188							7190	96.0	100.0	20.155		-73	0		50.04				149.73					99.88	99.69	99.808						2.3945	0.1188			
7200	0.1143							7200	96.0	100.0	20.140		-67	6		49.88				149.30					99.59	99.42	99.835						2.3022	0.1143			
7210	0.1162							7210	96.0	100.0	20.170		-70	0		49.83				149.74					99.78	99.91	100.122						2.3429	0.1162			
7220	0.1199							7220	96.0	100.0	20.141		-67	0		49.82				150.14					99.98	100.33	100.346						2.4145	0.1199			
7230	0.1144							7230	96.0	100.0	20.146		-65	0		49.87				149.81					99.84	99.94	100.100						2.3057	0.1144			
7240	0.1169							7240	96.0	100.0	20.113		-57	0		50.23				149.60					99.91	99.38	99.462						2.3505	0.1169			
7250	0.1162							7250	96.0	100.0	20.164		-77	0		50.04				150.30					100.17	100.26	100.089						2.3426	0.1162			
7260	0.1149							7260	96.0	100.0	20.179		-74	0		49.94				150.30					100.12	100.36	100.244						2.3176	0.1149			
7270	0.1207							7270	96.0	100.0	20.106		-56	0		50.22				150.14					100.18	99.92	99.737						2.4272	0.1207			
7280	0.1130							7280	96.0	100.0	20.202		-78	0		50.30				149.71					100.01	99.41	99.405						2.2831	0.1130			
7290	0.1172							7290	96.0	100.0	20.144		-64	0		50.08				150.03					100.05	99.96	99.901						2.3606	0.1172			
7300	0.1197							7300	96.0	100.0	20.110		-59	0		50.08				150.38					100.23	100.30	100.076						2.4080	0.1197			
7310	0.1183							7310	96.0	100.0	20.200		-84	0		49.88				149.89					99.89	100.00	100.116						2.3896	0.1183			
7320	0.1211							7320	96.0	100.0	20.106		-58	0		49.82				150.32					100.07	100.49	100.423						2.4344	0.1211			
7330	0.1170							7330	96.0	100.0	20.106		-63	0		50.16				149.97					100.07	99.81	99.748						2.3530	0.1170			
7340	0.1180							7340	96.0	100.0	20.103		-64	2		49.83				150.00					99.92	100.17	100.250						2.3714	0.1180			
7350	0.1208							7350	96.0	100.0	20.168		-68	0		49.77				150.17					99.97	100.39	100.422						2.4369	0.1208			
7360	0.1126							7360	96.0	100.0	20.132		-67	0		50.38				150.00					100.19	99.62	99.433						2.2675	0.1126			
7370	0.1146							7370	96.0	100.0	20.186		-70	0		49.98				149.84					99.91	99.86	99.952						2.3139	0.1146			
7380	0.1176							7380	96.0	100.0	20.168		-69	0		49.86				150.54					100.20	100.67	100.475						2.3715	0.1176			
7390	0.1133							7390	96.0	100.0	20.200		-72	0		49.93				150.14					100.04	100.21	100.177						2.2891	0.1133			
7400	0.1189							7400	96.0	100.0	20.095		-57	0		50.02				149.72					99.87	99.70	99.829						2.3903	0.1189			
7410	0.1150							7410	96.0	100.0	20.164		-69	1		50.18				150.13					100.16	99.95	99.797						2.3196	0.1150			
7420	0.1143							7420	96.0	100.0	20.122		-75	0		50.05				150.17					100.11	100.11	100.002						2.3009	0.1143			
7430	0.1203							7430	96.0	100.0	20.120		-57	0		49.85				150.22					100.03	100.37	100.338						2.4212	0.1203			
7440	0.1189							7440	96.0	100.0	20.163		-79	9		49.65				150.30					99.98	100.66	100.680						2.3974	0.1189			
7450	0.1162							7450	96.0	100.0	20.176		-72	0		49.93				149.67					99.80	99.74	99.938						2.3438	0.1162			
7460	0.1195							7460	96.0	100.0	20.101		-51	0		49.85				149.45					99.65	99.60	99.945						2.4025	0.1195			
7470	0.1156							7470	96.0	100.0	20.176		-80	0		50.35				150.24					100.30	99.89	99.593						2.3325	0.1156			
7480	0.1207							7480	96.0	100.0	20.122		-62	0		49.73				150.26					99.99	100.54	100.542						2.4283	0.1207			
7490	0.1132							7490	96.0	100.0	20.167		-69	0		49.82				149.88					99.85	100.06	100.207						2.2830	0.1132			
7500	0.1191							7500	96.0	100.0	20.125		-68	0		50.26				149.78					100.02	99.51	99.493						2.3975	0.1191			
7510	0.1182							7510	96.0	100.0	20.134		-64	0		49.92				150.59					100.25	100.67	100.414						2.3801	0.1182			
7520	0.1151							7520	96.0	100.0	20.158		-69	0		49.93				150.27					100.10	100.34	100.245						2.3195	0.1151			
7530	0.1180							7530	96.0	100.0	20.146		-67	0		50.12				149.62					99.87	99.50	99.625						2.3779	0.1180			
7540	0.1151							7540	96.0	100.0	20.109		-76	15		49.80				149.88					99.84	100.08	100.244						2.3142	0.1151			
7550	0.1204							7550	96.0	100.0	20.151		-67	0		49.92				149.78					99.85	99.87	100.020						2.4264	0.1204			
7560	0.1181							7560	96.0	100.0	20.153		-62	0		49.66				150.41					100.04	100.75	100.711						2.3802	0.1181			
7570	0.1128							7570	96.0	100.0	20.170		-70	0		50.09				150.34					100.21	100.25	100.040						2.2754	0.1128			
7580	0.1225							7580	96.0	100.0	20.116		-50	0		50.16				150.25					100.21	100.09	99.881						2.4634	0.1225			
7590	0.1159							7590	96.0	100.0	20.152		-85	1		49.89				150.61					100.25	100.72	100.463						2.3352	0.1159			
7600	0.1225							7600	96.0	100.0	20.144		-63	0		49.93				149.74					99.83	99.81	99.975						2.4668	0.1225			
7610	0.1180							7610	96.0	100.0	20.158		-63	1		50.15				149.93					100.04	99.78	99.747						2.3790	0.1180			
7620	0.1146							7620	96.0	100.0	20.177		-80	0		50.06				149.57					99.81	99.50	99.690						2.3116	0.1146			
7630	0.1195							7630	96.0	100.0	20.129		-59	0		49.91				149.91					99.91	100.01	100.097						2.4057	0.1195			
7640	0.1186							7640	96.0	100.0	20.110		-59	0		49.64				149.90					99.77	100.25	100.485						2.3855	0.1186			
7650	0.1157							7650	96.0	100.0	20.182		-75	0		50.02				149.80					99.91	99.78	99.876						2.3361	0.1157			
7660	0.1188							7660	96.0	100.0	20.149		-70	0		50.04				149.75					99.90	99.72	99.818						2.3946	0.1188			
7670	0.1151							7670	96.0	100.0	20.152		-70	0		50.07				149.85					99.96	99.79	99.829						2.3200	0.1151			
7680	0.1235							7680	96.0	100.0	20.141		-64	0		49.84				149.62					99.73	99.78	100.049						2.4871	0.1235			
7690	0.1181							7690	96.0	100.0	20.133		-71	5		50.10				149.81					99.96	99.71	99.758						2.3781	0.1181			
7700	0.1146							7700	96.0	100.0	20.170		-71	1		50.07				149.81					99.94	99.74	99.800						2.3122	0.1146			
7710	0.1186							7710	96.0	100.0	20.099		-61	0		49.80				150.11					99.95	100.31	100.359						2.3835	0.1186			
7720	0.1203							7720	96.0	100.0	20.111		-59	0		49.71				150.00					99.86	100.29	100.436						2.4195	0.1203			
7730	0.1214							7730	96.0	100.0	20.152		-78	8		50.08				149.89					99.98	99.81	99.826						2.4466	0.1214			
7740	0.1153							7740	96.0	100.0	20.190		-76	0		50.43				150.12					100.28	99.69	99.409						2.3269	0.1153			
7750	0.1218							7750	96.0	100.0	20.074		-48	0		49.86				150.16					100.01	100.30	100.294						2.4440	0.1218			
7760	0.1149							7760	96.0	100.0	20.176		-73	0		50.06				150.08					100.07	100.02	99.945						2.3179	0.1149			
7770	0.1184							7770	96.0	100.0	20.215		-82	0		49.77				149.89					99.83	100.12	100.292						2.3938	0.1184			
7780	0.1192							7780	96.0	100.0	20.129		-61	0		49.69				149.81					99.75	100.11	100.366						2.3990	0.1192			
7790	0.1162							7790	96.0	100.0	20.167		-71	0		49.89				150.03					99.96	100.15	100.188						2.3428	0.1162			
7800	0.1204							7800	96.0	100.0	20.146		-64	0		49.66				149.82					99.74	100.16	100.415						2.4252	0.1204			
7810	0.1190							7810	96.0	100.0	20.101		-63	0		49.71				149.87					99.79	100.16	100.377						2.3920	0.1190			
7820	0.1215							7820	96.0	100.0	20.140		-68	0		50.06				149.96					100.01	99.90	99.890						2.4463	0.1215			
7830	0.1181							7830	96.0	100.0	20.159		-73	1		50.21				149.80					100.01	99.59	99.585						2.3817	0.1181			
7840	0.1193							7840	96.0	100.0	20.155		-69	0		49.84				150.13					99.99	100.29	100.301						2.4040	0.1193			
7850	0.1223							7850	96.0	100.0	20.117		-61	0		49.99				150.17					100.08	100.18	100.105						2.4607	0.1223			
7860	0.1201							7860	96.0	100.0	20.117		-70	0		49.96				150.32					100.14	100.35	100.213						2.4167	0.1201			
7870	0.1136							7870	96.0	100.0	20.191		-79	0		49.94				149.39					99.67	99.45	99.778						2.2940	0.1136			
7880	0.1216							7880	96.0	100.0	20.135		-61	0		49.56				150.10					99.83	100.54	100.707						2.4483	0.1216			
7890	0.1191							7890	96.0	100.0	20.182		-70	0		49.83				150.43					100.13	100.60	100.474						2.4046	0.1191			
7900	0.1164							7900	96.0	100.0	20.215		-84	0		49.95				150.11					100.03	100.16	100.130						2.3528	0.1164			
7910	0.1201							7910	96.0	100.0	20.146		-62	0		50.11				149.47					99.79	99.36	99.568						2.4204	0.1201			
7920	0.1164							7920	96.0	100.0	20.128		-58	0		50.09				149.73					99.91	99.64	99.732						2.3434	0.1164			
7930	0.1204							7930	96.0	100.0	20.218		-79	0		50.25				150.27					100.26	100.02	99.761						2.4338	0.1204			
7940	0.1181							7940	96.0	100.0	20.133		-66	0		50.10				150.22					100.16	100.11	99.953						2.3777	0.1181			
7950	0.1158							7950	96.0	100.0	20.140		-67	0		49.98				150.05					100.01	100.07	100.059						2.3331	0.1158			
7960	0.1178							7960	96.0	100.0	20.163		-72	0		50.02				149.69					99.86	99.67	99.810						2.3750	0.1178			
7970	0.1213							7970	96.0	100.0	20.123		-67	0		49.87				149.51					99.69	99.64	99.953						2.4418	0.1213			
7980	0.1139							7980	96.0	100.0	20.131		-64	0		49.82				149.70					99.76	99.88	100.114						2.2922	0.1139			
7990	0.1225							7990	96.0	100.0	20.131		-62	0		50.20				149.71					99.95	99.51	99.557						2.4653	0.1225			
8000	0.1213							8000	96.0	100.0	20.146		-64	0		50.02				150.47					100.24	100.44	100.199						2.4441	0.1213			
8010	0.1148							8010	96.0	100.0	20.237		-84	11		49.78				150.18					99.98	100.40	100.426						2.3222	0.1148			
8020	0.1206							8020	96.0	100.0	20.194		-76	0		49.37				149.76					99.56	100.40	100.836						2.4352	0.1206			
8030	0.1204							8030	96.0	100.0	20.113		-49	0		49.92				149.36					99.64	99.44	99.800						2.4220	0.1204			
8040	0.1163							8040	96.0	100.0	20.152		-74	2		50.24				149.81					100.02	99.58	99.553						2.3439	0.1163			
8050	0.1186							8050	96.0	100.0	20.170		-72	0		50.06				150.17					100.11	100.11	99.995						2.3925	0.1186			
8060	0.1219							8060	96.0	100.0	20.130		-60	0		49.95				150.19					100.07	100.24	100.171						2.4538	0.1219			
8070	0.1162							8070	96.0	100.0	20.191		-80	0		49.87				149.62					99.74	99.76	100.013						2.3460	0.1162			
8080	0.1213							8080	96.0	100.0	20.125		-64	0		50.06				150.08					100.07	100.02	99.952						2.4404	0.1213			
8090	0.1204							8090	96.0	100.0	20.113		-56	0		50.33				150.64					100.48	100.31	99.831						2.4223	0.1204			
8100	0.1157							8100	96.0	100.0	20.134		-69	0		50.07				149.93					100.00	99.86	99.859						2.3302	0.1157			
8110	0.1205							8110	96.0	100.0	20.191		-73	0		50.37				150.16					100.26	99.79	99.532						2.4329	0.1205			
8120	0.1159							8120	96.0	100.0	20.129		-71	10		49.84				149.61					99.72	99.77	100.044						2.3328	0.1159			
8130	0.1222							8130	96.0	100.0	20.152		-67	0		49.91				149.48					99.70	99.56	99.869						2.4618	0.1222			
8140	0.1221							8140	96.0	100.0	20.146		-66	0		49.94				149.78					99.86	99.84	99.976						2.4599	0.1221			
8150	0.1166							8150	96.0	100.0	20.164		-71	0		50.03				149.81					99.92	99.78	99.863						2.3520	0.1166			
8160	0.1197							8160	96.0	100.0	20.101		-55	0		49.87				150.13					100.00	100.26	100.257						2.4053	0.1197			
8170	0.1165							8170	96.0	100.0	20.131		-70	0		49.80				150.06					99.93	100.26	100.336						2.3446	0.1165			
8180	0.1208							8180	96.0	100.0	20.185		-84	0		49.63				149.53					99.58	99.90	100.318						2.4393	0.1208			
8190	0.1208							8190	96.0	100.0	20.087		-56	0		49.84				150.26					100.05	100.42	100.368						2.4261	0.1208			
8200	0.1161							8200	96.0	100.0	20.080		-70	6		49.95				149.43					99.69	99.49	99.797						2.3315	0.1161			
8210	0.1217							8210	96.0	100.0	20.188		-77	0		49.95				150.12					100.03	100.17	100.138						2.4564	0.1217			
8220	0.1217							8220	96.0	100.0	20.128		-59	0		50.23				150.44					100.33	100.21	99.880						2.4493	0.1217			
8230	0.1175							8230	96.0	100.0	20.175		-73	0		49.74				149.98					99.86	100.24	100.384						2.3704	0.1175			
8240	0.1227							8240	96.0	100.0	20.101		-68	0		50.04				150.29					100.16	100.24	100.081						2.4672	0.1227			
8250	0.1175							8250	96.0	100.0	20.156		-67	0		50.03				149.89					99.96	99.86	99.903						2.3690	0.1175			
8260	0.1204							8260	96.0	100.0	20.135		-65	0		49.77				150.32					100.05	100.54	100.497						2.4241	0.1204			
8270	0.1201							8270	96.0	100.0	20.144		-69	0		50.10				150.16					100.13	100.06	99.928						2.4201	0.1201			
8280	0.1171							8280	96.0	100.0	20.168		-69	0		50.28				149.98					100.13	99.70	99.574						2.3611	0.1171			
8290	0.1233							8290	96.0	100.0	20.167		-70	0		50.46				149.85					100.15	99.39	99.236						2.4866	0.1233			
8300	0.1151							8300	96.0	100.0	20.179		-78	1		49.72				150.09					99.90	100.37	100.464						2.3234	0.1151			
8310	0.1236							8310	96.0	100.0	20.127		-58	0		50.10				150.43					100.27	100.32	100.056						2.4881	0.1236			
8320	0.1182							8320	96.0	100.0	20.196		-71	2		49.79				149.94					99.87	100.14	100.278						2.3869	0.1182			
8330	0.1170							8330	96.0	100.0	20.174		-77	0		50.26				149.45					99.85	99.19	99.339						2.3608	0.1170			
8340	0.1226							8340	96.0	100.0	20.106		-54	0		50.24				149.88					100.06	99.64	99.584						2.4656	0.1226			
8350	0.1189							8350	96.0	100.0	20.159		-75	13		49.90				149.59					99.74	99.69	99.947						2.3963	0.1189			
8360	0.1211							8360	96.0	100.0	20.113		-76	12		50.07				149.81					99.94	99.74	99.795						2.4348	0.1211			
8370	0.1241							8370	96.0	100.0	20.107		-54	0		50.46				149.63					100.04	99.16	99.118						2.4961	0.1241			
8380	0.1192							8380	96.0	100.0	20.134		-64	0		49.86				149.98					99.92	100.12	100.195						2.4001	0.1192			
8390	0.1227							8390	96.0	100.0	20.169		-75	0		50.30				149.56					99.93	99.26	99.327						2.4752	0.1227			
8400	0.1208							8400	96.0	100.0	20.167		-67	0		49.88				149.82					99.85	99.94	100.085						2.4367	0.1208			
8410	0.1175							8410	96.0	100.0	20.150		-69	0		49.97				149.76					99.87	99.79	99.924						2.3682	0.1175			
8420	0.1236							8420	96.0	100.0	20.168		-66	0		50.01				150.62					100.32	100.60	100.286						2.4920	0.1236			
8430	0.1215							8430	96.0	100.0	20.117		-72	0		49.95				150.14					100.05	100.19	100.147						2.4439	0.1215			
8440	0.1172							8440	96.0	100.0	20.170		-69	2		50.20				149.93					100.07	99.73	99.663						2.3631	0.1172			
8450	0.1223							8450	96.0	100.0	20.116		-55	0		50.32				149.94					100.13	99.62	99.489						2.4597	0.1223			
8460	0.1184							8460	96.0	100.0	20.176		-80	0		49.94				150.26					100.10	100.32	100.215						2.3890	0.1184			
8470	0.1209							8470	96.0	100.0	20.158		-78	0		49.76				150.46					100.11	100.71	100.597						2.4366	0.1209			
8480	0.1225							8480	96.0	100.0	20.077		-57	0		49.98				149.98					99.98	100.00	100.013						2.4596	0.1225			
8490	0.1171							8490	96.0	100.0	20.174		-76	0		50.14				150.08					100.11	99.94	99.834						2.3615	0.1171			
8500	0.1209							8500	96.0	100.0	20.138		-60	0		49.90				150.16					100.03	100.26	100.233						2.4351	0.1209			
8510	0.1199							8510	96.0	100.0	20.100		-62	8		50.11				150.26					100.19	100.15	99.961						2.4097	0.1199			
8520	0.1197							8520	96.0	100.0	20.215		-82	0		50.16				149.79					99.97	99.63	99.656						2.4203	0.1197			
8530	0.1228							8530	96.0	100.0	20.110		-67	0		49.74				149.60					99.67	99.86	100.193						2.4694	0.1228			
8540	0.1180							8540	96.0	100.0	20.161		-63	0		49.92				150.12					100.02	100.21	100.187						2.3791	0.1180			
8550	0.1206							8550	96.0	100.0	20.119		-67	0		49.97				150.44					100.21	100.47	100.265						2.4266	0.1206			
8560	0.1229							8560	96.0	100.0	20.161		-66	0		49.97				150.32					100.14	100.35	100.209						2.4768	0.1229			
8570	0.1182							8570	96.0	100.0	20.162		-70	5		50.20				149.50					99.85	99.30	99.452						2.3835	0.1182			
8580	0.1236							8580	96.0	100.0	20.135		-64	0		49.73				150.29					100.01	100.56	100.550						2.4890	0.1236			
8590	0.1183							8590	96.0	100.0	20.125		-82	10		49.79				150.54					100.16	100.74	100.578						2.3801	0.1183			
8600	0.1227							8600	96.0	100.0	20.119		-60	0		50.03				150.00					100.02	99.97	99.949						2.4677	0.1227			
8610	0.1178							8610	96.0	100.0	20.163		-75	8		50.13				149.76					99.94	99.63	99.685						2.3747	0.1178			
8620	0.1222							8620	96.0	100.0	20.163		-71	0		50.33				149.90					100.11	99.57	99.460						2.4635	0.1222			
8630	0.1218							8630	96.0	100.0	20.100		-56	0		50.14				150.39					100.26	100.25	99.986						2.4489	0.1218			
8640	0.1184							8640	96.0	100.0	20.176		-84	0		49.69				149.78					99.74	100.09	100.356						2.3886	0.1184			
8650	0.1215							8650	96.0	100.0	20.134		-60	0		50.13				149.88					100.01	99.76	99.753						2.4472	0.1215			
8660	0.1191							8660	96.0	100.0	20.094		-68	2		50.29				149.47					99.88	99.18	99.305						2.3941	0.1191			
8670	0.1197							8670	96.0	100.0	20.182		-73	1		49.97				149.97					99.97	100.01	100.038						2.4164	0.1197			
8680	0.1259							8680	96.0	100.0	20.124		-63	0		49.94				150.16					100.05	100.21	100.164						2.5328	0.1259			
8690	0.1176							8690	96.0	100.0	20.162		-66	0		50.13				150.28					100.20	100.15	99.951						2.3706	0.1176			
8700	0.1200							8700	96.0	100.0	20.140		-72	0		50.24				150.36					100.30	100.12	99.817						2.4174	0.1200			
8710	0.1242							8710	96.0	100.0	20.173		-72	0		49.88				149.83					99.86	99.95	100.094						2.5060	0.1242			
8720	0.1222							8720	96.0	100.0	20.140		-64	0		49.96				149.76					99.86	99.80	99.942						2.4619	0.1222			
8730	0.1255							8730	96.0	100.0	20.140		-64	0		49.95				150.06					100.00	100.11	100.106						2.5276	0.1255			
8740	0.1163							8740	96.0	100.0	20.158		-76	0		50.14				149.50					99.82	99.36	99.538						2.3447	0.1163			
8750	0.1225							8750	96.0	100.0	20.120		-59	0		50.32				149.20					99.76	98.88	99.120						2.4639	0.1225			
8760	0.1209							8760	96.0	100.0	20.176		-82	0		49.97				150.55					100.26	100.59	100.329						2.4383	0.1209			
8770	0.1195							8770	96.0	100.0	20.170		-81	7		50.05				150.29					100.17	100.24	100.063						2.4111	0.1195			
8780	0.1228							8780	96.0	100.0	20.092		-48	2		50.00				150.12					100.06	100.12	100.054						2.4672	0.1228			
8790	0.1199							8790	96.0	100.0	20.113		-65	0		50.12				149.66					99.89	99.54	99.647						2.4119	0.1199			
8800	0.1217							8800	96.0	100.0	20.187		-78	0		50.10				150.16					100.13	100.06	99.933						2.4573	0.1217			
8810	0.1260							8810	96.0	100.0	20.151		-62	0		49.74				150.17					99.95	100.43	100.471						2.5400	0.1260			
8820	0.1190							8820	96.0	100.0	20.185		-72	0		49.84				149.71					99.77	99.87	100.092						2.4019	0.1190			
8830	0.1229							8830	96.0	100.0	20.130		-73	0		50.03				150.27					100.15	100.24	100.086						2.4741	0.1229			
8840	0.1250							8840	96.0	100.0	20.155		-64	0		49.82				150.35					100.08	100.53	100.449						2.5198	0.1250			
8850	0.1194							8850	96.0	100.0	20.149		-66	0		49.88				150.35					100.11	100.47	100.356						2.4064	0.1194			
8860	0.1267							8860	96.0	100.0	20.164		-67	0		50.18				150.33					100.25	100.15	99.897						2.5548	0.1267			
8870	0.1207							8870	96.0	100.0	20.175		-74	1		50.17				150.00					100.09	99.82	99.737						2.4349	0.1207			
8880	0.1172							8880	96.0	100.0	20.113		-76	6		49.97				150.65					100.31	100.69	100.376						2.3570	0.1172			
8890	0.1260							8890	96.0	100.0	20.106		-58	0		49.96				150.41					100.19	100.45	100.261						2.5340	0.1260			
8900	0.1189							8900	96.0	100.0	20.121		-70	1		49.79				149.83					99.81	100.03	100.226						2.3930	0.1189			
8910	0.1175							8910	96.0	100.0	20.143		-68	0		50.01				149.33					99.67	99.31	99.644						2.3666	0.1175			
8920	0.1205							8920	96.0	100.0	20.117		-55	0		50.13				150.24					100.18	100.12	99.933						2.4235	0.1205			
8930	0.1204							8930	96.0	100.0	20.189		-76	0		50.16				150.24					100.20	100.08	99.874						2.4310	0.1204			
8940	0.1222							8940	96.0	100.0	20.155		-63	0		49.69				150.26					99.98	100.56	100.587						2.4622	0.1222			
8950	0.1217							8950	96.0	100.0	20.109		-61	1		50.06				149.46					99.76	99.40	99.641						2.4465	0.1217			
8960	0.1189							8960	96.0	100.0	20.184		-77	3		49.96				149.82					99.89	99.86	99.970						2.4004	0.1189			
8970	0.1241							8970	96.0	100.0	20.175		-76	0		49.91				150.07					99.99	100.17	100.175						2.5030	0.1241			
8980	0.1263							8980	96.0	100.0	20.129		-62	0		50.23				150.67					100.45	100.44	99.987						2.5428	0.1263			
8990	0.1193							8990	96.0	100.0	20.137		-71	3		49.95				150.25					100.10	100.30	100.202						2.4016	0.1193			
9000	0.1222							9000	96.0	100.0	20.154		-69	0		50.11				150.06					100.08	99.96	99.874						2.4635	0.1222			
9010	0.1220							9010	96.0	100.0	20.160		-66	0		49.90				150.29					100.10	100.39	100.289						2.4589	0.1220			
9020	0.1208							9020	96.0	100.0	20.094		-70	3		49.69				150.41					100.05	100.73	100.678						2.4275	0.1208			
9030	0.1223							9030	96.0	100.0	20.128		-58	0		50.14				149.59					99.86	99.45	99.586						2.4626	0.1223			
9040	0.1203							9040	96.0	100.0	20.158		-70	0		50.35				149.25					99.80	98.90	99.098						2.4245	0.1203			
9050	0.1195							9050	96.0	100.0	20.240		-82	0		50.10				149.62					99.86	99.52	99.665						2.4193	0.1195			
9060	0.1308							9060	96.0	100.0	20.118		-56	0		49.94				150.37					100.15	100.44	100.281						2.6306	0.1308			
9070	0.1213							9070	96.0	100.0	20.193		-77	0		49.67				149.36					99.51	99.69	100.180						2.4489	0.1213			
9080	0.1220							9080	96.0	100.0	20.144		-62	0		50.22				149.14					99.68	98.92	99.238						2.4576	0.1220			
9090	0.1269							9090	96.0	100.0	20.118		-55	0		50.26				150.06					100.16	99.80	99.643						2.5534	0.1269			
9100	0.1179							9100	96.0	100.0	20.234		-83	0		50.24				150.28					100.26	100.05	99.787						2.3846	0.1179			
9110	0.1251							9110	96.0	100.0	20.209		-75	0		49.85				149.46					99.65	99.61	99.954						2.5274	0.1251			
9120	0.1211							9120	96.0	100.0	20.086		-60	2		50.02				149.85					99.94	99.83	99.896						2.4317	0.1211			
9130	0.1222							9130	96.0	100.0	20.179		-69	0		49.80				149.99					99.90	100.19	100.289						2.4659	0.1222			
9140	0.1227							9140	96.0	100.0	20.170		-66	0		50.06				149.77					99.91	99.71	99.800						2.4739	0.1227			
9150	0.1223							9150	96.0	100.0	20.190		-67	0		50.03				149.69					99.86	99.66	99.807						2.4702	0.1223			
9160	0.1245							9160	96.0	100.0	20.184		-68	0		50.13				149.60					99.87	99.47	99.606						2.5133	0.1245			
9170	0.1290							9170	96.0	100.0	20.140		-77	7		49.89				150.28					100.08	100.39	100.310						2.5981	0.1290			
9180	0.1250							9180	96.0	100.0	20.203		-72	0		50.25				149.87					100.06	99.62	99.566						2.5262	0.1250			
9190	0.1270							9190	96.0	100.0	20.107		-53	0		49.79				149.29					99.54	99.50	99.961						2.5531	0.1270			
9200	0.1221							9200	96.0	100.0	20.180		-71	2		49.88				149.51					99.70	99.63	99.932						2.4633	0.1221			
9210	0.1220							9210	96.0	100.0	20.185		-81	0		50.07				149.99					100.03	99.93	99.897						2.4628	0.1220			
9220	0.1281							9220	96.0	100.0	20.144		-73	0		50.00				149.72					99.86	99.73	99.866						2.5810	0.1281			
9230	0.1255							9230	96.0	100.0	20.140		-58	0		50.22				149.82					100.02	99.60	99.576						2.5280	0.1255			
9240	0.1208							9240	96.0	100.0	20.156		-76	12		50.10				149.73					99.91	99.63	99.717						2.4341	0.1208			
9250	0.1248							9250	96.0	100.0	20.142		-59	2		49.89				149.30					99.60	99.42	99.819						2.5133	0.1248			
9260	0.1233							9260	96.0	100.0	20.194		-72	12		50.07				150.14					100.11	100.08	99.973						2.4892	0.1233			
9270	0.1275							9270	96.0	100.0	20.228		-81	0		50.20				150.24					100.22	100.04	99.824						2.5789	0.1275			
9280	0.1286							9280	96.0	100.0	20.149		-62	0		50.05				148.92					99.48	98.88	99.389						2.5918	0.1286			
9290	0.1217							9290	96.0	100.0	20.149		-65	0		49.80				150.46					100.13	100.66	100.534						2.4512	0.1217			
9300	0.1273							9300	96.0	100.0	20.171		-69	0		49.88				150.38					100.13	100.50	100.375						2.5677	0.1273			
9310	0.1215							9310	96.0	100.0	20.141		-64	0		50.16				149.75					99.96	99.59	99.635						2.4464	0.1215			
9320	0.1261							9320	96.0	100.0	20.173		-65	0		50.15				149.95					100.05	99.80	99.747						2.5434	0.1261			
9330	0.1219							9330	96.0	100.0	20.212		-76	0		49.65				150.22					99.94	100.56	100.628						2.4641	0.1219			
9340	0.1235							9340	96.0	100.0	20.176		-71	0		49.77				150.32					100.04	100.55	100.506						2.4923	0.1235			
9350	0.1285							9350	96.0	100.0	20.158		-60	0		50.07				149.96					100.02	99.89	99.874						2.5908	0.1285			
9360	0.1286							9360	96.0	100.0	20.116		-52	0		50.06				149.80					99.93	99.74	99.813						2.5868	0.1286			
9370	0.1196							9370	96.0	100.0	20.182		-79	4		50.15				150.17					100.16	100.02	99.860						2.4143	0.1196			
9380	0.1262							9380	96.0	100.0	20.160		-67	7		49.72				150.02					99.87	100.29	100.424						2.5445	0.1262			
9390	0.1270							9390	96.0	100.0	20.153		-63	0		49.84				150.03					99.94	100.18	100.248						2.5584	0.1270			
9400	0.1220							9400	96.0	100.0	20.158		-81	5		49.96				149.78					99.87	99.83	99.956						2.4595	0.1220			
9410	0.1271							9410	96.0	100.0	20.158		-57	0		49.82				150.00					99.91	100.18	100.275						2.5629	0.1271			
9420	0.1229							9420	96.0	100.0	20.137		-62	0		49.75				149.99					99.87	100.24	100.367						2.4753	0.1229			
9430	0.1270							9430	96.0	100.0	20.193		-74	0		49.99				149.69					99.84	99.70	99.861						2.5646	0.1270			
9440	0.1266							9440	96.0	100.0	20.118		-70	0		49.79				149.96					99.88	100.18	100.299						2.5470	0.1266			
9450	0.1200							9450	96.0	100.0	20.199		-70	0		49.85				150.17					100.01	100.32	100.306						2.4235	0.1200			
9460	0.1216							9460	96.0	100.0	20.195		-67	0		50.21				150.23					100.22	100.02	99.803						2.4558	0.1216			
9470	0.1283							9470	96.0	100.0	19.977		-63	0		50.01				149.73					99.87	99.73	99.856						2.5628	0.1283			
9480	0.1232							9480	96.0	100.0	19.979		-76	1		50.03				150.13					100.08	100.11	100.028						2.4618	0.1232			
9490	0.1189							9490	96.0	100.0	19.967		-63	0		50.07				150.02					100.05	99.95	99.901						2.3741	0.1189			
9500	0.1273							9500	96.0	100.0	19.949		-58	0		50.44				149.89					100.17	99.45	99.281						2.5393	0.1273			
9510	0.1199							9510	96.0	100.0	19.932		-82	14		50.06				149.86					99.96	99.79	99.832						2.3893	0.1199			
9520	0.1207							9520	96.0	100.0	19.965		-73	0		50.14				150.33					100.23	100.19	99.956						2.4106	0.1207			
9530	0.1266							9530	96.0	100.0	19.917		-48	0		49.89				149.56					99.72	99.67	99.951						2.5214	0.1266			
9540	0.1238							9540	96.0	100.0	20.006		-77	0		49.79				150.02					99.90	100.23	100.328						2.4766	0.1238			
9550	0.1245							9550	96.0	100.0	20.029		-79	0		50.08				149.65					99.87	99.56	99.695						2.4934	0.1245			
9560	0.1279							9560	96.0	100.0	19.955		-60	0		49.87				149.90					99.89	100.03	100.146						2.5523	0.1279			
9570	0.1215							9570	96.0	100.0	19.972		-68	0		50.15				149.65					99.90	99.50	99.598						2.4259	0.1215			
9580	0.1218							9580	96.0	100.0	19.970		-72	5		50.15				149.98					100.07	99.83	99.760						2.4332	0.1218			
9590	0.1261							9590	96.0	100.0	19.918		-66	1		49.87				150.12					99.99	100.25	100.260						2.5117	0.1261			
9600	0.1224							9600	96.0	100.0	19.998		-67	7		49.86				150.24					100.05	100.38	100.334						2.4486	0.1224			
9610	0.1183							9610	96.0	100.0	19.961		-69	3		50.17				150.10					100.13	99.93	99.793						2.3606	0.1183			
9620	0.1272							9620	96.0	100.0	19.979		-66	0		50.05				150.40					100.22	100.35	100.128						2.5420	0.1272			
9630	0.1257							9630	96.0	100.0	20.005		-78	0		49.96				150.35					100.16	100.39	100.229						2.5140	0.1257			
9640	0.1255							9640	96.0	100.0	19.996		-72	0		50.02				149.88					99.95	99.86	99.904						2.5087	0.1255			
9650	0.1246							9650	96.0	100.0	19.961		-58	0		50.22				150.11					100.16	99.89	99.728						2.4877	0.1246			
9660	0.1173							9660	96.0	100.0	20.031		-78	0		50.18				149.64					99.91	99.46	99.547						2.3490	0.1173			
9670	0.1260							9670	96.0	100.0	19.924		-60	1		49.81				150.42					100.12	100.61	100.492						2.5113	0.1260			
9680	0.1234							9680	96.0	100.0	19.927		-60	0		49.87				149.93					99.90	100.06	100.159						2.4583	0.1234			
9690	0.1186							9690	96.0	100.0	19.994		-81	0		50.21				149.93					100.07	99.73	99.658						2.3706	0.1186			
9700	0.1255							9700	96.0	100.0	19.956		-63	0		50.13				149.97					100.05	99.84	99.795						2.5052	0.1255			
9710	0.1273							9710	96.0	100.0	19.896		-53	0		50.40				150.36					100.38	99.96	99.576						2.5328	0.1273			
9720	0.1220							9720	96.0	100.0	20.014		-75	0		50.17				150.39					100.28	100.23	99.947						2.4414	0.1220			
9730	0.1240							9730	96.0	100.0	19.977		-63	0		50.30				149.96					100.13	99.66	99.536						2.4775	0.1240			
9740	0.1234							9740	96.0	100.0	19.956		-67	1		50.07				149.95					100.01	99.88	99.869						2.4631	0.1234			
9750	0.1228							9750	96.0	100.0	19.965		-69	0		49.85				150.37					100.11	100.51	100.401						2.4512	0.1228			
9760	0.1254							9760	96.0	100.0	19.968		-70	1		49.91				150.36					100.14	100.44	100.307						2.5038	0.1254			
9770	0.1196							9770	96.0	100.0	19.979		-70	2		50.16				149.80					99.98	99.64	99.660						2.3887	0.1196			
9780	0.1286							9780	96.0	100.0	19.968		-59	0		50.19				149.55					99.87	99.36	99.491						2.5672	0.1286			
9790	0.1200							9790	96.0	100.0	19.999		-80	1		49.83				150.19					100.01	100.36	100.349						2.4002	0.1200			
9800	0.1222							9800	96.0	100.0	20.018		-77	0		49.97				150.00					99.99	100.02	100.038						2.4469	0.1222			
9810	0.1273							9810	96.0	100.0	19.980		-67	0		50.05				149.81					99.93	99.76	99.836						2.5441	0.1273			
9820	0.1238							9820	96.0	100.0	19.944		-63	0		49.89				149.53					99.71	99.63	99.922						2.4685	0.1238			
9830	0.1177							9830	96.0	100.0	19.994		-74	0		50.17				149.39					99.78	99.22	99.436						2.3527	0.1177			
9840	0.1220							9840	96.0	100.0	20.033		-81	0		50.14				150.22					100.18	100.08	99.901						2.4441	0.1220			
9850	0.1271							9850	96.0	100.0	19.913		-61	0		49.80				150.06					99.93	100.26	100.327						2.5311	0.1271			
9860	0.1218							9860	96.0	100.0	20.023		-79	0		50.27				150.14					100.21	99.88	99.675						2.4382	0.1218			
9870	0.1265							9870	96.0	100.0	19.959		-60	0		49.77				149.49					99.63	99.72	100.094						2.5245	0.1265			
9880	0.1205							9880	96.0	100.0	19.911		-63	9		49.70				150.37					100.04	100.67	100.633						2.4000	0.1205			
9890	0.1222							9890	96.0	100.0	19.977		-70	0		50.23				150.00					100.12	99.77	99.659						2.4406	0.1222			
9900	0.1266							9900	96.0	100.0	19.990		-68	0		50.18				149.94					100.06	99.76	99.704						2.5309	0.1266			
9910	0.1195							9910	96.0	100.0	19.983		-75	0		49.83				150.04					99.93	100.21	100.272						2.3878	0.1195			
9920	0.1198							9920	96.0	100.0	19.965		-76	13		49.96				150.11					100.04	100.14	100.109						2.3915	0.1198			
9930	0.1238							9930	96.0	100.0	19.959		-62	0		49.85				149.73					99.79	99.88	100.089						2.4706	0.1238			
9940	0.1225							9940	96.0	100.0	20.006		-68	0		49.86				150.36					100.11	100.50	100.392						2.4517	0.1225			
9950	0.1196							9950	96.0	100.0	19.996		-74	0		50.38				149.50					99.94	99.12	99.179						2.3917	0.1196			
9960	0.1244							9960	96.0	100.0	19.959		-58	0		49.84				150.51					100.17	100.67	100.496						2.4821	0.1244			
9970	0.1237							9970	96.0	100.0	19.983		-80	13		50.04				150.08					100.06	100.05	99.983						2.4711	0.1237			
9980	0.1223							9980	96.0	100.0	19.993		-80	7		50.21				150.17					100.19	99.96	99.777						2.4447	0.1223			
9990	0.1252							9990	96.0	100.0	19.947		-50	0		50.42				150.64					100.53	100.22	99.690						2.4973	0.1252			
10000	0.1241							10000	96.0	100.0	19.988		-72	5		50.03				150.45					100.24	100.42	100.177						2.4798	0.1241			

All steps completed, test completed normally at 19/08/2016 12:35:32